### FSI tabel with Julich A Potential (2-Gauss potential) #####
# krel [MeV] # Influence Factor(S) # Influence Factor(T)
4 7.04282 19.5096
8 6.4853 18.5209
12 6.21937 15.3424
16 6.13315 12.0137
20 5.95397 9.52774
24 5.77925 7.72541
28 5.5838 6.41626
32 5.38788 5.45056
36 5.19223 4.72692
40 5.00082 4.17405
44 4.81695 3.74396
48 4.6421 3.40365
52 4.47713 3.13012
56 4.32242 2.90708
60 4.17791 2.72279
64 4.04325 2.56866
68 3.9179 2.43831
72 3.80125 2.32694
76 3.69261 2.23086
80 3.59133 2.14724
84 3.49674 2.07384
88 3.40824 2.00893
92 3.32524 1.9511
96 3.24721 1.89923
100 3.17367 1.8524
104 3.1042 1.80987
108 3.03839 1.77103
112 2.97591 1.73537
116 2.91644 1.70246
120 2.8597 1.67196
124 2.80545 1.64357
128 2.75348 1.61703
132 2.7036 1.59214
136 2.65562 1.56871
140 2.60942 1.5466
144 2.56484 1.52566
148 2.52178 1.50578
152 2.48014 1.48686
156 2.43983 1.46883
160 2.40075 1.4516
164 2.36285 1.43511
168 2.32607 1.4193
172 2.29034 1.40413
176 2.25561 1.38955
180 2.22186 1.37552
184 2.18902 1.36201
188 2.15708 1.349
192 2.126 1.33645
196 2.09575 1.32434
200 2.06631 1.31265
204 2.03765 1.30136
208 2.00976 1.29045
212 1.98261 1.27991
216 1.95618 1.26973
220 1.93047 1.25988
224 1.90545 1.25037
228 1.88111 1.24117
232 1.85743 1.23229
236 1.83441 1.2237
240 1.81202 1.2154
244 1.79026 1.20738
248 1.76911 1.19964
252 1.74857 1.19216
256 1.72861 1.18494
260 1.70923 1.17796
264 1.69042 1.17124
268 1.67215 1.16475
272 1.65443 1.15849
276 1.63724 1.15246
280 1.62057 1.14664
284 1.6044 1.14104
288 1.58872 1.13565
292 1.57353 1.13045
296 1.5588 1.12545
300 1.54454 1.12064
304 1.53072 1.11601
308 1.51734 1.11156
312 1.50438 1.10728
316 1.49183 1.10317
320 1.47968 1.09922
324 1.46792 1.09543
328 1.45653 1.09179
332 1.44552 1.0883
336 1.43485 1.08495
340 1.42453 1.08174
344 1.41455 1.07865
348 1.40488 1.0757
352 1.39553 1.07287
356 1.38648 1.07016
360 1.37772 1.06756
364 1.36925 1.06507
368 1.36104 1.06269
372 1.3531 1.06041
376 1.34541 1.05823
380 1.33797 1.05614
384 1.33076 1.05415
388 1.32378 1.05224
392 1.31701 1.05041
396 1.31046 1.04866
400 1.30411 1.04699
404 1.29796 1.04539
408 1.292 1.04386
412 1.28621 1.0424
416 1.2806 1.041
420 1.27516 1.03967
424 1.26988 1.03839
428 1.26476 1.03717
432 1.25979 1.036
436 1.25496 1.03488
440 1.25027 1.03381
444 1.24571 1.03279
448 1.24128 1.03181
452 1.23698 1.03087
456 1.23279 1.02997
460 1.22872 1.02912
464 1.22476 1.02829
468 1.2209 1.02751
472 1.21715 1.02675
476 1.2135 1.02603
480 1.20994 1.02534
484 1.20647 1.02468
488 1.20309 1.02404
492 1.1998 1.02343
496 1.19659 1.02284
500 1.19346 1.02228
504 1.1904 1.02174
508 1.18742 1.02122
512 1.18451 1.02072
516 1.18168 1.02024
520 1.1789 1.01978
524 1.1762 1.01934
528 1.17355 1.01891
532 1.17097 1.0185
536 1.16844 1.01811
540 1.16597 1.01773
544 1.16356 1.01736
548 1.1612 1.017
552 1.15889 1.01666
556 1.15663 1.01633
560 1.15442 1.01601
564 1.15226 1.01571
568 1.15015 1.01541
572 1.14807 1.01512
576 1.14605 1.01484
580 1.14406 1.01457
584 1.14211 1.01431
588 1.14021 1.01406
592 1.13834 1.01382
596 1.13651 1.01358
600 1.13472 1.01335
604 1.13296 1.01313
608 1.13124 1.01291
612 1.12955 1.0127
616 1.12789 1.0125
620 1.12627 1.0123
624 1.12468 1.01211
628 1.12311 1.01192
632 1.12158 1.01174
636 1.12008 1.01157
640 1.1186 1.01139
644 1.11715 1.01123
648 1.11573 1.01106
652 1.11434 1.01091
656 1.11297 1.01075
660 1.11162 1.0106
664 1.1103 1.01046
668 1.109 1.01031
672 1.10773 1.01017
676 1.10647 1.01004
680 1.10524 1.00991
684 1.10404 1.00978
688 1.10285 1.00965
692 1.10168 1.00953
696 1.10053 1.0094
700 1.09941 1.00929
704 1.0983 1.00917
708 1.09721 1.00906
712 1.09614 1.00895
716 1.09508 1.00884
720 1.09405 1.00874
724 1.09303 1.00863
728 1.09203 1.00853
732 1.09104 1.00843
736 1.09007 1.00833
740 1.08911 1.00824
744 1.08818 1.00815
748 1.08725 1.00805
752 1.08634 1.00797
756 1.08545 1.00788
760 1.08457 1.00779
764 1.0837 1.00771
768 1.08284 1.00762
772 1.082 1.00754
776 1.08117 1.00746
780 1.08036 1.00738
784 1.07956 1.00731
788 1.07876 1.00723
792 1.07799 1.00716
796 1.07722 1.00708
800 1.07646 1.00701
804 1.07572 1.00694
808 1.07498 1.00687
812 1.07426 1.0068
816 1.07355 1.00674
820 1.07284 1.00667
824 1.07215 1.00661
828 1.07147 1.00654
832 1.07079 1.00648
836 1.07013 1.00642
840 1.06948 1.00636
844 1.06883 1.0063
848 1.06819 1.00624
852 1.06757 1.00618
856 1.06695 1.00612
860 1.06634 1.00607
864 1.06574 1.00601
868 1.06514 1.00595
872 1.06456 1.0059
876 1.06398 1.00585
880 1.06341 1.0058
884 1.06285 1.00574
888 1.06229 1.00569
892 1.06175 1.00564
896 1.0612 1.00559
900 1.06067 1.00554
904 1.06015 1.0055
908 1.05963 1.00545
912 1.05911 1.0054
916 1.05861 1.00536
920 1.05811 1.00531
924 1.05761 1.00526
928 1.05713 1.00522
932 1.05665 1.00518
936 1.05617 1.00513
940 1.0557 1.00509
944 1.05524 1.00505
948 1.05478 1.00501
952 1.05433 1.00497
956 1.05388 1.00492
960 1.05344 1.00488
964 1.05301 1.00484
968 1.05258 1.00481
972 1.05215 1.00477
976 1.05173 1.00473
980 1.05132 1.00469
984 1.05091 1.00465
988 1.0505 1.00462
992 1.0501 1.00458
996 1.04971 1.00455
1000 1.04932 1.00451
1004 1.04893 1.00447
1008 1.04855 1.00444
1012 1.04817 1.00441
1016 1.0478 1.00437
1020 1.04743 1.00434
1024 1.04707 1.00431
1028 1.0467 1.00427
1032 1.04635 1.00424
1036 1.046 1.00421
1040 1.04565 1.00418
1044 1.0453 1.00415
1048 1.04496 1.00411
1052 1.04463 1.00408
1056 1.0443 1.00405
1060 1.04397 1.00402
1064 1.04364 1.00399
1068 1.04332 1.00397
1072 1.043 1.00394
1076 1.04269 1.00391
1080 1.04237 1.00388
1084 1.04207 1.00385
1088 1.04176 1.00382
1092 1.04146 1.0038
1096 1.04116 1.00377
1100 1.04087 1.00374
1104 1.04058 1.00372
1108 1.04029 1.00369
1112 1.04 1.00366
1116 1.03972 1.00364
1120 1.03944 1.00361
1124 1.03916 1.00359
1128 1.03889 1.00356
1132 1.03862 1.00354
1136 1.03835 1.00351
1140 1.03809 1.00349
1144 1.03782 1.00347
1148 1.03756 1.00344
1152 1.03731 1.00342
1156 1.03705 1.0034
1160 1.0368 1.00337
1164 1.03655 1.00335
1168 1.0363 1.00333
1172 1.03606 1.00331
1176 1.03582 1.00328
1180 1.03558 1.00326
1184 1.03534 1.00324
1188 1.0351 1.00322
1192 1.03487 1.0032
1196 1.03464 1.00318
1200 1.03441 1.00316
1204 1.03419 1.00314
1208 1.03396 1.00311
1212 1.03374 1.00309
1216 1.03352 1.00307
1220 1.03331 1.00305
1224 1.03309 1.00304
1228 1.03288 1.00302
1232 1.03267 1.003
1236 1.03246 1.00298
1240 1.03225 1.00296
1244 1.03205 1.00294
1248 1.03184 1.00292
1252 1.03164 1.0029
1256 1.03144 1.00289
1260 1.03125 1.00287
1264 1.03105 1.00285
1268 1.03086 1.00283
1272 1.03067 1.00281
1276 1.03048 1.0028
1280 1.03029 1.00278
1284 1.0301 1.00276
1288 1.02992 1.00275
1292 1.02973 1.00273
1296 1.02955 1.00271
1300 1.02937 1.0027
1304 1.02919 1.00268
1308 1.02902 1.00266
1312 1.02884 1.00265
1316 1.02867 1.00263
1320 1.0285 1.00262
1324 1.02833 1.0026
1328 1.02816 1.00259
1332 1.02799 1.00257
1336 1.02782 1.00255
1340 1.02766 1.00254
1344 1.0275 1.00253
1348 1.02734 1.00251
1352 1.02718 1.0025
1356 1.02702 1.00248
1360 1.02686 1.00247
1364 1.0267 1.00245
1368 1.02655 1.00244
1372 1.0264 1.00242
1376 1.02624 1.00241
1380 1.02609 1.0024
1384 1.02594 1.00238
1388 1.0258 1.00237
1392 1.02565 1.00236
1396 1.0255 1.00234
1400 1.02536 1.00233
1404 1.02522 1.00232
1408 1.02507 1.0023
1412 1.02493 1.00229
1416 1.02479 1.00228
1420 1.02466 1.00227
1424 1.02452 1.00225
1428 1.02438 1.00224
1432 1.02425 1.00223
1436 1.02411 1.00222
1440 1.02398 1.0022
1444 1.02385 1.00219
1448 1.02372 1.00218
1452 1.02359 1.00217
1456 1.02346 1.00216
1460 1.02333 1.00214
1464 1.02321 1.00213
1468 1.02308 1.00212
1472 1.02296 1.00211
1476 1.02283 1.0021
1480 1.02271 1.00209
1484 1.02259 1.00208
1488 1.02247 1.00207
1492 1.02235 1.00205
1496 1.02223 1.00204
1500 1.02211 1.00203
1504 1.022 1.00202
1508 1.02188 1.00201
1512 1.02177 1.002
1516 1.02165 1.00199
1520 1.02154 1.00198
1524 1.02143 1.00197
1528 1.02132 1.00196
1532 1.02121 1.00195
1536 1.0211 1.00194
1540 1.02099 1.00193
1544 1.02088 1.00192
1548 1.02077 1.00191
1552 1.02067 1.0019
1556 1.02056 1.00189
1560 1.02046 1.00188
1564 1.02035 1.00187
1568 1.02025 1.00186
1572 1.02015 1.00185
1576 1.02005 1.00184
1580 1.01995 1.00183
1584 1.01985 1.00183
1588 1.01975 1.00182
1592 1.01965 1.00181
1596 1.01955 1.0018
1600 1.01945 1.00179
1604 1.01936 1.00178
1608 1.01926 1.00177
1612 1.01917 1.00176
1616 1.01907 1.00175
1620 1.01898 1.00175
1624 1.01889 1.00174
1628 1.01879 1.00173
1632 1.0187 1.00172
1636 1.01861 1.00171
1640 1.01852 1.0017
1644 1.01843 1.0017
1648 1.01834 1.00169
1652 1.01825 1.00168
1656 1.01817 1.00167
1660 1.01808 1.00166
1664 1.01799 1.00166
1668 1.01791 1.00165
1672 1.01782 1.00164
1676 1.01774 1.00163
1680 1.01765 1.00162
1684 1.01757 1.00162
1688 1.01749 1.00161
1692 1.01741 1.0016
1696 1.01733 1.00159
1700 1.01724 1.00159
1704 1.01716 1.00158
1708 1.01708 1.00157
1712 1.017 1.00156
1716 1.01693 1.00156
1720 1.01685 1.00155
1724 1.01677 1.00154
1728 1.01669 1.00154
1732 1.01662 1.00153
1736 1.01654 1.00152
1740 1.01646 1.00152
1744 1.01639 1.00151
1748 1.01632 1.0015
1752 1.01624 1.00149
1756 1.01617 1.00149
1760 1.01609 1.00148
1764 1.01602 1.00147
1768 1.01595 1.00147
1772 1.01588 1.00146
1776 1.01581 1.00145
1780 1.01574 1.00145
1784 1.01567 1.00144
1788 1.0156 1.00144
1792 1.01553 1.00143
1796 1.01546 1.00142
1800 1.01539 1.00142
1804 1.01532 1.00141
1808 1.01526 1.0014
1812 1.01519 1.0014
1816 1.01512 1.00139
1820 1.01506 1.00139
1824 1.01499 1.00138
1828 1.01493 1.00137
1832 1.01486 1.00137
1836 1.0148 1.00136
1840 1.01473 1.00136
1844 1.01467 1.00135
1848 1.01461 1.00134
1852 1.01454 1.00134
1856 1.01448 1.00133
1860 1.01442 1.00133
1864 1.01436 1.00132
1868 1.0143 1.00132
1872 1.01424 1.00131
1876 1.01417 1.00131
1880 1.01411 1.0013
1884 1.01406 1.00129
1888 1.014 1.00129
1892 1.01394 1.00128
1896 1.01388 1.00128
1900 1.01382 1.00127
1904 1.01376 1.00127
1908 1.01371 1.00126
1912 1.01365 1.00126
1916 1.01359 1.00125
1920 1.01354 1.00125
1924 1.01348 1.00124
1928 1.01342 1.00124
1932 1.01337 1.00123
1936 1.01331 1.00123
1940 1.01326 1.00122
1944 1.0132 1.00122
1948 1.01315 1.00121
1952 1.0131 1.00121
1956 1.01304 1.0012
1960 1.01299 1.0012
1964 1.01294 1.00119
1968 1.01289 1.00119
1972 1.01283 1.00118
1976 1.01278 1.00118
1980 1.01273 1.00117
1984 1.01268 1.00117
1988 1.01263 1.00116
1992 1.01258 1.00116
1996 1.01253 1.00115
