### FSI tabel with Julich B Potential (2-Gauss potential) #####
# krel [MeV] # Influence Factor(S) # Influence Factor(T)
4 0.511243 0.372401
8 0.510901 0.356608
12 0.513751 0.374306
16 0.518684 0.418259
20 0.525701 0.463715
24 0.533839 0.518671
28 0.543324 0.577605
32 0.554029 0.64044
36 0.565819 0.705229
40 0.578614 0.770526
44 0.592299 0.835282
48 0.606757 0.898518
52 0.621877 0.959469
56 0.637544 1.01759
60 0.653648 1.07249
64 0.67008 1.12391
68 0.686737 1.17174
72 0.703521 1.21591
76 0.720341 1.25647
80 0.737111 1.2935
84 0.753754 1.32711
88 0.770199 1.35745
92 0.786385 1.38469
96 0.802254 1.409
100 0.817758 1.43055
104 0.832856 1.44952
108 0.847513 1.46608
112 0.861699 1.48041
116 0.875392 1.49266
120 0.888572 1.50299
124 0.901228 1.51154
128 0.913351 1.51845
132 0.924936 1.52385
136 0.935982 1.52787
140 0.946491 1.53061
144 0.956469 1.53219
148 0.965922 1.5327
152 0.97486 1.53223
156 0.983294 1.53088
160 0.991238 1.52872
164 0.998704 1.52584
168 1.00571 1.52229
172 1.01227 1.51815
176 1.0184 1.51348
180 1.02411 1.50833
184 1.02943 1.50275
188 1.03437 1.4968
192 1.03895 1.49053
196 1.04318 1.48396
200 1.04708 1.47715
204 1.05068 1.47013
208 1.05397 1.46294
212 1.05699 1.45559
216 1.05974 1.44813
220 1.06225 1.44058
224 1.06452 1.43297
228 1.06657 1.42531
232 1.06841 1.41763
236 1.07006 1.40995
240 1.07152 1.40228
244 1.07282 1.39464
248 1.07395 1.38704
252 1.07494 1.3795
256 1.07579 1.37203
260 1.07652 1.36464
264 1.07712 1.35733
268 1.07761 1.35012
272 1.078 1.34302
276 1.0783 1.33602
280 1.07851 1.32914
284 1.07864 1.32238
288 1.07869 1.31574
292 1.07868 1.30923
296 1.0786 1.30285
300 1.07847 1.2966
304 1.07828 1.29048
308 1.07805 1.2845
312 1.07777 1.27865
316 1.07745 1.27293
320 1.0771 1.26735
324 1.07672 1.26189
328 1.0763 1.25657
332 1.07586 1.25139
336 1.0754 1.24633
340 1.07492 1.24139
344 1.07441 1.23658
348 1.07389 1.2319
352 1.07336 1.22734
356 1.07281 1.22289
360 1.07225 1.21856
364 1.07168 1.21435
368 1.07111 1.21024
372 1.07052 1.20624
376 1.06993 1.20235
380 1.06934 1.19856
384 1.06874 1.19487
388 1.06814 1.19128
392 1.06754 1.18778
396 1.06693 1.18438
400 1.06632 1.18106
404 1.06572 1.17783
408 1.06511 1.17469
412 1.06451 1.17162
416 1.06391 1.16864
420 1.06331 1.16573
424 1.06271 1.16289
428 1.06211 1.16013
432 1.06152 1.15744
436 1.06093 1.15481
440 1.06034 1.15225
444 1.05976 1.14975
448 1.05918 1.14732
452 1.0586 1.14494
456 1.05803 1.14262
460 1.05746 1.14035
464 1.0569 1.13814
468 1.05634 1.13598
472 1.05578 1.13387
476 1.05523 1.13181
480 1.05469 1.1298
484 1.05415 1.12783
488 1.05361 1.1259
492 1.05308 1.12402
496 1.05256 1.12219
500 1.05204 1.12039
504 1.05152 1.11863
508 1.05101 1.11691
512 1.05051 1.11522
516 1.05001 1.11357
520 1.04951 1.11196
524 1.04902 1.11038
528 1.04854 1.10883
532 1.04806 1.10732
536 1.04758 1.10584
540 1.04711 1.10438
544 1.04665 1.10296
548 1.04619 1.10156
552 1.04573 1.10019
556 1.04529 1.09885
560 1.04484 1.09754
564 1.0444 1.09625
568 1.04397 1.09499
572 1.04354 1.09375
576 1.04311 1.09253
580 1.04269 1.09134
584 1.04228 1.09017
588 1.04187 1.08902
592 1.04146 1.0879
596 1.04106 1.08679
600 1.04066 1.08571
604 1.04027 1.08464
608 1.03989 1.0836
612 1.0395 1.08257
616 1.03913 1.08156
620 1.03875 1.08057
624 1.03838 1.0796
628 1.03802 1.07865
632 1.03766 1.07771
636 1.0373 1.07679
640 1.03695 1.07588
644 1.0366 1.07499
648 1.03626 1.07412
652 1.03592 1.07326
656 1.03559 1.07241
660 1.03525 1.07158
664 1.03493 1.07077
668 1.0346 1.06997
672 1.03428 1.06918
676 1.03397 1.0684
680 1.03366 1.06764
684 1.03335 1.06689
688 1.03305 1.06615
692 1.03274 1.06543
696 1.03245 1.06471
700 1.03215 1.06401
704 1.03186 1.06332
708 1.03158 1.06264
712 1.03129 1.06197
716 1.03102 1.06131
720 1.03074 1.06067
724 1.03047 1.06003
728 1.0302 1.0594
732 1.02993 1.05878
736 1.02967 1.05817
740 1.02941 1.05758
744 1.02915 1.05699
748 1.0289 1.0564
752 1.02864 1.05583
756 1.0284 1.05527
760 1.02815 1.05471
764 1.02791 1.05417
768 1.02767 1.05363
772 1.02743 1.0531
776 1.0272 1.05258
780 1.02697 1.05206
784 1.02674 1.05155
788 1.02651 1.05105
792 1.02629 1.05056
796 1.02607 1.05007
800 1.02585 1.04959
804 1.02564 1.04912
808 1.02542 1.04866
812 1.02521 1.0482
816 1.02501 1.04775
820 1.0248 1.0473
824 1.0246 1.04686
828 1.0244 1.04643
832 1.0242 1.046
836 1.024 1.04558
840 1.02381 1.04516
844 1.02361 1.04475
848 1.02342 1.04434
852 1.02324 1.04394
856 1.02305 1.04355
860 1.02287 1.04316
864 1.02269 1.04278
868 1.02251 1.0424
872 1.02233 1.04202
876 1.02215 1.04165
880 1.02198 1.04129
884 1.02181 1.04093
888 1.02164 1.04058
892 1.02147 1.04023
896 1.0213 1.03988
900 1.02114 1.03954
904 1.02098 1.0392
908 1.02082 1.03887
912 1.02066 1.03854
916 1.0205 1.03822
920 1.02034 1.0379
924 1.02019 1.03758
928 1.02004 1.03727
932 1.01989 1.03696
936 1.01974 1.03665
940 1.01959 1.03635
944 1.01945 1.03605
948 1.0193 1.03576
952 1.01916 1.03547
956 1.01902 1.03518
960 1.01888 1.0349
964 1.01874 1.03462
968 1.0186 1.03434
972 1.01847 1.03407
976 1.01833 1.0338
980 1.0182 1.03353
984 1.01807 1.03327
988 1.01794 1.03301
992 1.01781 1.03275
996 1.01768 1.03249
1000 1.01756 1.03224
1004 1.01743 1.03199
1008 1.01731 1.03175
1012 1.01718 1.0315
1016 1.01706 1.03126
1020 1.01694 1.03103
1024 1.01683 1.03079
1028 1.01671 1.03056
1032 1.01659 1.03033
1036 1.01648 1.0301
1040 1.01636 1.02988
1044 1.01625 1.02965
1048 1.01614 1.02943
1052 1.01603 1.02922
1056 1.01592 1.029
1060 1.01581 1.02879
1064 1.0157 1.02858
1068 1.0156 1.02837
1072 1.01549 1.02816
1076 1.01539 1.02796
1080 1.01528 1.02776
1084 1.01518 1.02756
1088 1.01508 1.02736
1092 1.01498 1.02717
1096 1.01488 1.02697
1100 1.01478 1.02678
1104 1.01468 1.02659
1108 1.01459 1.02641
1112 1.01449 1.02622
1116 1.0144 1.02604
1120 1.0143 1.02586
1124 1.01421 1.02568
1128 1.01412 1.0255
1132 1.01403 1.02533
1136 1.01394 1.02515
1140 1.01385 1.02498
1144 1.01376 1.02481
1148 1.01367 1.02464
1152 1.01358 1.02447
1156 1.0135 1.02431
1160 1.01341 1.02414
1164 1.01333 1.02398
1168 1.01324 1.02382
1172 1.01316 1.02366
1176 1.01308 1.02351
1180 1.013 1.02335
1184 1.01292 1.0232
1188 1.01284 1.02304
1192 1.01276 1.02289
1196 1.01268 1.02274
1200 1.0126 1.02259
1204 1.01252 1.02245
1208 1.01245 1.0223
1212 1.01237 1.02216
1216 1.01229 1.02202
1220 1.01222 1.02187
1224 1.01215 1.02173
1228 1.01207 1.0216
1232 1.012 1.02146
1236 1.01193 1.02132
1240 1.01186 1.02119
1244 1.01179 1.02105
1248 1.01172 1.02092
1252 1.01165 1.02079
1256 1.01158 1.02066
1260 1.01151 1.02053
1264 1.01144 1.02041
1268 1.01137 1.02028
1272 1.01131 1.02016
1276 1.01124 1.02003
1280 1.01118 1.01991
1284 1.01111 1.01979
1288 1.01105 1.01967
1292 1.01098 1.01955
1296 1.01092 1.01943
1300 1.01086 1.01931
1304 1.01079 1.0192
1308 1.01073 1.01908
1312 1.01067 1.01897
1316 1.01061 1.01885
1320 1.01055 1.01874
1324 1.01049 1.01863
1328 1.01043 1.01852
1332 1.01037 1.01841
1336 1.01031 1.0183
1340 1.01026 1.01819
1344 1.0102 1.01809
1348 1.01014 1.01798
1352 1.01009 1.01788
1356 1.01003 1.01777
1360 1.00997 1.01767
1364 1.00992 1.01757
1368 1.00987 1.01747
1372 1.00981 1.01737
1376 1.00976 1.01727
1380 1.0097 1.01717
1384 1.00965 1.01707
1388 1.0096 1.01698
1392 1.00955 1.01688
1396 1.0095 1.01679
1400 1.00944 1.01669
1404 1.00939 1.0166
1408 1.00934 1.01651
1412 1.00929 1.01641
1416 1.00924 1.01632
1420 1.00919 1.01623
1424 1.00915 1.01614
1428 1.0091 1.01605
1432 1.00905 1.01597
1436 1.009 1.01588
1440 1.00895 1.01579
1444 1.00891 1.0157
1448 1.00886 1.01562
1452 1.00881 1.01553
1456 1.00877 1.01545
1460 1.00872 1.01537
1464 1.00868 1.01528
1468 1.00863 1.0152
1472 1.00859 1.01512
1476 1.00854 1.01504
1480 1.0085 1.01496
1484 1.00846 1.01488
1488 1.00841 1.0148
1492 1.00837 1.01472
1496 1.00833 1.01465
1500 1.00829 1.01457
1504 1.00824 1.01449
1508 1.0082 1.01442
1512 1.00816 1.01434
1516 1.00812 1.01427
1520 1.00808 1.01419
1524 1.00804 1.01412
1528 1.008 1.01405
1532 1.00796 1.01397
1536 1.00792 1.0139
1540 1.00788 1.01383
1544 1.00784 1.01376
1548 1.0078 1.01369
1552 1.00777 1.01362
1556 1.00773 1.01355
1560 1.00769 1.01348
1564 1.00765 1.01342
1568 1.00762 1.01335
1572 1.00758 1.01328
1576 1.00754 1.01321
1580 1.0075 1.01315
1584 1.00747 1.01308
1588 1.00743 1.01302
1592 1.0074 1.01295
1596 1.00736 1.01289
1600 1.00733 1.01283
1604 1.00729 1.01276
1608 1.00726 1.0127
1612 1.00722 1.01264
1616 1.00719 1.01258
1620 1.00715 1.01251
1624 1.00712 1.01245
1628 1.00709 1.01239
1632 1.00705 1.01233
1636 1.00702 1.01227
1640 1.00699 1.01222
1644 1.00696 1.01216
1648 1.00692 1.0121
1652 1.00689 1.01204
1656 1.00686 1.01198
1660 1.00683 1.01193
1664 1.0068 1.01187
1668 1.00676 1.01181
1672 1.00673 1.01176
1676 1.0067 1.0117
1680 1.00667 1.01165
1684 1.00664 1.01159
1688 1.00661 1.01154
1692 1.00658 1.01148
1696 1.00655 1.01143
1700 1.00652 1.01138
1704 1.00649 1.01132
1708 1.00646 1.01127
1712 1.00643 1.01122
1716 1.00641 1.01117
1720 1.00638 1.01112
1724 1.00635 1.01107
1728 1.00632 1.01101
1732 1.00629 1.01096
1736 1.00626 1.01091
1740 1.00624 1.01086
1744 1.00621 1.01082
1748 1.00618 1.01077
1752 1.00615 1.01072
1756 1.00613 1.01067
1760 1.0061 1.01062
1764 1.00607 1.01057
1768 1.00605 1.01053
1772 1.00602 1.01048
1776 1.00599 1.01043
1780 1.00597 1.01039
1784 1.00594 1.01034
1788 1.00592 1.01029
1792 1.00589 1.01025
1796 1.00587 1.0102
1800 1.00584 1.01016
1804 1.00582 1.01011
1808 1.00579 1.01007
1812 1.00577 1.01003
1816 1.00574 1.00998
1820 1.00572 1.00994
1824 1.00569 1.0099
1828 1.00567 1.00985
1832 1.00565 1.00981
1836 1.00562 1.00977
1840 1.0056 1.00973
1844 1.00558 1.00968
1848 1.00555 1.00964
1852 1.00553 1.0096
1856 1.00551 1.00956
1860 1.00548 1.00952
1864 1.00546 1.00948
1868 1.00544 1.00944
1872 1.00541 1.0094
1876 1.00539 1.00936
1880 1.00537 1.00932
1884 1.00535 1.00928
1888 1.00533 1.00924
1892 1.0053 1.0092
1896 1.00528 1.00917
1900 1.00526 1.00913
1904 1.00524 1.00909
1908 1.00522 1.00905
1912 1.0052 1.00901
1916 1.00518 1.00898
1920 1.00516 1.00894
1924 1.00513 1.0089
1928 1.00511 1.00887
1932 1.00509 1.00883
1936 1.00507 1.00879
1940 1.00505 1.00876
1944 1.00503 1.00872
1948 1.00501 1.00869
1952 1.00499 1.00865
1956 1.00497 1.00862
1960 1.00495 1.00858
1964 1.00493 1.00855
1968 1.00491 1.00851
1972 1.00489 1.00848
1976 1.00488 1.00844
1980 1.00486 1.00841
1984 1.00484 1.00838
1988 1.00482 1.00834
1992 1.0048 1.00831
1996 1.00478 1.00828
