### FSI tabel with Julich A Potential (2-Gauss potential) #####
# Weight # krel [MeV] 
2 19.6053
4 19.5309
6 19.4083
8 19.2393
10 19.0265
12 18.773
14 18.4826
16 18.159
18 17.8064
20 17.4291
22 17.0314
24 16.6173
26 16.1908
28 15.7556
30 15.315
32 14.8723
34 14.4302
36 13.9911
38 13.557
40 13.1298
42 12.711
44 12.3017
46 11.903
48 11.5155
50 11.1397
52 10.7762
54 10.425
56 10.0863
58 9.76002
60 9.4461
62 9.14434
64 8.85453
66 8.57636
68 8.30953
70 8.0537
72 7.80849
74 7.57354
76 7.34846
78 7.13287
80 6.92638
82 6.72862
84 6.53922
86 6.35781
88 6.18404
90 6.01756
92 5.85804
94 5.70517
96 5.55864
98 5.41814
100 5.28341
102 5.15417
104 5.03016
106 4.91114
108 4.79687
110 4.68714
112 4.58172
114 4.48042
116 4.38304
118 4.28941
120 4.19935
122 4.1127
124 4.02929
126 3.94899
128 3.87165
130 3.79713
132 3.72532
134 3.65609
136 3.58932
138 3.52491
140 3.46275
142 3.40275
144 3.34481
146 3.28885
148 3.23478
150 3.18251
152 3.13199
154 3.08312
156 3.03585
158 2.99011
160 2.94583
162 2.90296
164 2.86144
166 2.82121
168 2.78223
170 2.74445
172 2.70781
174 2.67228
176 2.63781
178 2.60436
180 2.5719
182 2.54039
184 2.50978
186 2.48005
188 2.45117
190 2.4231
192 2.39582
194 2.36929
196 2.34349
198 2.3184
200 2.29398
202 2.27023
204 2.2471
206 2.22459
208 2.20266
210 2.18131
212 2.16051
214 2.14024
216 2.12049
218 2.10123
220 2.08246
222 2.06415
224 2.04629
226 2.02888
228 2.01188
230 1.9953
232 1.97911
234 1.9633
236 1.94787
238 1.9328
240 1.91808
242 1.90371
244 1.88966
246 1.87593
248 1.86251
250 1.84939
252 1.83656
254 1.82402
256 1.81175
258 1.79976
260 1.78802
262 1.77653
264 1.76529
266 1.75429
268 1.74352
270 1.73298
272 1.72266
274 1.71255
276 1.70265
278 1.69295
280 1.68345
282 1.67414
284 1.66501
286 1.65607
288 1.64731
290 1.63871
292 1.63029
294 1.62203
296 1.61393
298 1.60598
300 1.59819
302 1.59054
304 1.58304
306 1.57568
308 1.56845
310 1.56136
312 1.5544
314 1.54757
316 1.54086
318 1.53427
320 1.5278
322 1.52145
324 1.51521
326 1.50908
328 1.50306
330 1.49714
332 1.49132
334 1.48561
336 1.48
338 1.47448
340 1.46905
342 1.46372
344 1.45847
346 1.45332
348 1.44825
350 1.44326
352 1.43836
354 1.43353
356 1.42879
358 1.42412
360 1.41952
362 1.415
364 1.41056
366 1.40618
368 1.40187
370 1.39763
372 1.39346
374 1.38935
376 1.3853
378 1.38132
380 1.3774
382 1.37353
384 1.36973
386 1.36598
388 1.36229
390 1.35866
392 1.35508
394 1.35155
396 1.34807
398 1.34465
400 1.34127
402 1.33795
404 1.33467
406 1.33144
408 1.32826
410 1.32512
412 1.32202
414 1.31897
416 1.31596
418 1.313
420 1.31007
422 1.30719
424 1.30435
426 1.30154
428 1.29877
430 1.29605
432 1.29335
434 1.2907
436 1.28808
438 1.28549
440 1.28294
442 1.28043
444 1.27794
446 1.27549
448 1.27308
450 1.27069
452 1.26833
454 1.26601
456 1.26371
458 1.26145
460 1.25921
462 1.257
464 1.25482
466 1.25267
468 1.25054
470 1.24844
472 1.24637
474 1.24432
476 1.2423
478 1.2403
480 1.23833
482 1.23638
484 1.23446
486 1.23255
488 1.23068
490 1.22882
492 1.22699
494 1.22517
496 1.22338
498 1.22161
500 1.21987
502 1.21814
504 1.21643
506 1.21474
508 1.21307
510 1.21142
512 1.20979
514 1.20818
516 1.20659
518 1.20502
520 1.20346
522 1.20192
524 1.2004
526 1.19889
528 1.1974
530 1.19593
532 1.19448
534 1.19304
536 1.19162
538 1.19021
540 1.18882
542 1.18744
544 1.18608
546 1.18473
548 1.1834
550 1.18208
552 1.18078
554 1.17949
556 1.17821
558 1.17695
560 1.1757
562 1.17446
564 1.17324
566 1.17202
568 1.17083
570 1.16964
572 1.16847
574 1.16731
576 1.16616
578 1.16502
580 1.16389
582 1.16278
584 1.16167
586 1.16058
588 1.1595
590 1.15843
592 1.15737
594 1.15632
596 1.15528
598 1.15425
600 1.15324
602 1.15223
604 1.15123
606 1.15024
608 1.14926
610 1.14829
612 1.14733
614 1.14638
616 1.14544
618 1.14451
620 1.14358
622 1.14267
624 1.14176
626 1.14087
628 1.13998
630 1.1391
632 1.13822
634 1.13736
636 1.1365
638 1.13566
640 1.13481
642 1.13398
644 1.13316
646 1.13234
648 1.13153
650 1.13073
652 1.12993
654 1.12914
656 1.12836
658 1.12759
660 1.12682
662 1.12606
664 1.12531
666 1.12456
668 1.12382
670 1.12309
672 1.12236
674 1.12164
676 1.12093
678 1.12022
680 1.11952
682 1.11882
684 1.11813
686 1.11745
688 1.11677
690 1.1161
692 1.11544
694 1.11478
696 1.11412
698 1.11347
700 1.11283
702 1.11219
704 1.11156
706 1.11093
708 1.11031
710 1.10969
712 1.10908
714 1.10847
716 1.10787
718 1.10727
720 1.10668
722 1.1061
724 1.10551
726 1.10494
728 1.10436
730 1.1038
732 1.10323
734 1.10267
736 1.10212
738 1.10157
740 1.10102
742 1.10048
744 1.09995
746 1.09941
748 1.09889
750 1.09836
752 1.09784
754 1.09733
756 1.09682
758 1.09631
760 1.0958
762 1.0953
764 1.09481
766 1.09432
768 1.09383
770 1.09334
772 1.09286
774 1.09239
776 1.09191
778 1.09144
780 1.09098
782 1.09052
784 1.09006
786 1.0896
788 1.08915
790 1.0887
792 1.08826
794 1.08781
796 1.08737
798 1.08694
800 1.08651
802 1.08608
804 1.08565
806 1.08523
808 1.08481
810 1.08439
812 1.08398
814 1.08357
816 1.08316
818 1.08276
820 1.08236
822 1.08196
824 1.08156
826 1.08117
828 1.08078
830 1.08039
832 1.08001
834 1.07963
836 1.07925
838 1.07887
840 1.0785
842 1.07813
844 1.07776
846 1.07739
848 1.07703
850 1.07667
852 1.07631
854 1.07596
856 1.0756
858 1.07525
860 1.0749
862 1.07456
864 1.07421
866 1.07387
868 1.07354
870 1.0732
872 1.07286
874 1.07253
876 1.0722
878 1.07188
880 1.07155
882 1.07123
884 1.07091
886 1.07059
888 1.07027
890 1.06996
892 1.06965
894 1.06934
896 1.06903
898 1.06872
900 1.06842
902 1.06812
904 1.06782
906 1.06752
908 1.06722
910 1.06693
912 1.06664
914 1.06635
916 1.06606
918 1.06577
920 1.06549
922 1.0652
924 1.06492
926 1.06464
928 1.06437
930 1.06409
932 1.06382
934 1.06354
936 1.06327
938 1.06301
940 1.06274
942 1.06247
944 1.06221
946 1.06195
948 1.06169
950 1.06143
952 1.06117
954 1.06092
956 1.06066
958 1.06041
960 1.06016
962 1.05991
964 1.05966
966 1.05942
968 1.05917
970 1.05893
972 1.05869
974 1.05845
976 1.05821
978 1.05797
980 1.05774
982 1.0575
984 1.05727
986 1.05704
988 1.05681
990 1.05658
992 1.05635
994 1.05613
996 1.0559
998 1.05568
1000 1.05546
1002 1.05524
1004 1.05502
1006 1.0548
1008 1.05458
1010 1.05437
1012 1.05415
1014 1.05394
1016 1.05373
1018 1.05352
1020 1.05331
1022 1.0531
1024 1.0529
1026 1.05269
1028 1.05249
1030 1.05228
1032 1.05208
1034 1.05188
1036 1.05168
1038 1.05148
1040 1.05128
1042 1.05109
1044 1.05089
1046 1.0507
1048 1.05051
1050 1.05032
1052 1.05012
1054 1.04994
1056 1.04975
1058 1.04956
1060 1.04937
1062 1.04919
1064 1.049
1066 1.04882
1068 1.04864
1070 1.04846
1072 1.04828
1074 1.0481
1076 1.04792
1078 1.04774
1080 1.04757
1082 1.04739
1084 1.04722
1086 1.04704
1088 1.04687
1090 1.0467
1092 1.04653
1094 1.04636
1096 1.04619
1098 1.04602
1100 1.04586
1102 1.04569
1104 1.04553
1106 1.04536
1108 1.0452
1110 1.04504
1112 1.04487
1114 1.04471
1116 1.04455
1118 1.04439
1120 1.04424
1122 1.04408
1124 1.04392
1126 1.04377
1128 1.04361
1130 1.04346
1132 1.04331
1134 1.04315
1136 1.043
1138 1.04285
1140 1.0427
1142 1.04255
1144 1.0424
1146 1.04226
1148 1.04211
1150 1.04196
1152 1.04182
1154 1.04167
1156 1.04153
1158 1.04139
1160 1.04125
1162 1.0411
1164 1.04096
1166 1.04082
1168 1.04068
1170 1.04054
1172 1.04041
1174 1.04027
1176 1.04013
1178 1.04
1180 1.03986
1182 1.03973
1184 1.03959
1186 1.03946
1188 1.03933
1190 1.0392
1192 1.03907
1194 1.03893
1196 1.0388
1198 1.03868
