### FSI tabel with Julich B Potential (2-Gauss potential) #####
# Weight # krel [MeV] 
0.5 1.44089
1 1.25891
1.5 1.38117
2 1.44786
2.5 1.3522
3 1.30762
3.5 1.32594
4 1.35838
4.5 1.37713
5 1.37649
5.5 1.36432
6 1.35122
6.5 1.34348
7 1.34222
7.5 1.34543
8 1.35023
8.5 1.35429
9 1.3564
9.5 1.35644
10 1.35494
10.5 1.35268
11 1.35035
11.5 1.34841
12 1.34706
12.5 1.34631
13 1.34602
13.5 1.346
14 1.34607
14.5 1.34607
15 1.34591
15.5 1.34554
16 1.34496
16.5 1.34421
17 1.34333
17.5 1.34237
18 1.34139
18.5 1.34041
19 1.33946
19.5 1.33855
20 1.33768
20.5 1.33683
21 1.336
21.5 1.33518
22 1.33435
22.5 1.33351
23 1.33264
23.5 1.33174
24 1.3308
24.5 1.32983
25 1.32884
25.5 1.32781
26 1.32676
26.5 1.32568
27 1.32459
27.5 1.32349
28 1.32237
28.5 1.32123
29 1.32009
29.5 1.31894
30 1.31778
30.5 1.3166
31 1.31542
31.5 1.31423
32 1.31302
32.5 1.3118
33 1.31057
33.5 1.30932
34 1.30807
34.5 1.30679
35 1.30551
35.5 1.30421
36 1.3029
36.5 1.30158
37 1.30025
37.5 1.2989
38 1.29754
38.5 1.29618
39 1.2948
39.5 1.29341
40 1.29202
40.5 1.29061
41 1.2892
41.5 1.28778
42 1.28635
42.5 1.28491
43 1.28346
43.5 1.28201
44 1.28055
44.5 1.27908
45 1.2776
45.5 1.27612
46 1.27463
46.5 1.27314
47 1.27164
47.5 1.27013
48 1.26861
48.5 1.2671
49 1.26557
49.5 1.26404
50 1.26251
50.5 1.26097
51 1.25943
51.5 1.25788
52 1.25633
52.5 1.25478
53 1.25322
53.5 1.25166
54 1.25009
54.5 1.24853
55 1.24696
55.5 1.24538
56 1.24381
56.5 1.24223
57 1.24066
57.5 1.23908
58 1.2375
58.5 1.23591
59 1.23433
59.5 1.23275
60 1.23116
60.5 1.22958
61 1.22799
61.5 1.22641
62 1.22483
62.5 1.22324
63 1.22166
63.5 1.22007
64 1.21849
64.5 1.21691
65 1.21533
65.5 1.21375
66 1.21217
66.5 1.2106
67 1.20902
67.5 1.20745
68 1.20588
68.5 1.20432
69 1.20275
69.5 1.20119
70 1.19963
70.5 1.19807
71 1.19652
71.5 1.19497
72 1.19342
72.5 1.19187
73 1.19033
73.5 1.1888
74 1.18726
74.5 1.18574
75 1.18421
75.5 1.18269
76 1.18117
76.5 1.17966
77 1.17815
77.5 1.17665
78 1.17515
78.5 1.17366
79 1.17217
79.5 1.17068
80 1.1692
80.5 1.16773
81 1.16626
81.5 1.1648
82 1.16334
82.5 1.16189
83 1.16044
83.5 1.159
84 1.15757
84.5 1.15614
85 1.15471
85.5 1.1533
86 1.15189
86.5 1.15048
87 1.14908
87.5 1.14769
88 1.14631
88.5 1.14493
89 1.14355
89.5 1.14219
90 1.14083
90.5 1.13947
91 1.13813
91.5 1.13679
92 1.13545
92.5 1.13413
93 1.13281
93.5 1.1315
94 1.13019
94.5 1.12889
95 1.1276
95.5 1.12632
96 1.12504
96.5 1.12377
97 1.12251
97.5 1.12126
98 1.12001
98.5 1.11877
99 1.11754
99.5 1.11631
100 1.11509
100.5 1.11388
101 1.11268
101.5 1.11148
102 1.11029
102.5 1.10911
103 1.10794
103.5 1.10677
104 1.10562
104.5 1.10447
105 1.10332
105.5 1.10219
106 1.10106
106.5 1.09994
107 1.09883
107.5 1.09772
108 1.09662
108.5 1.09553
109 1.09445
109.5 1.09338
110 1.09231
110.5 1.09125
111 1.0902
111.5 1.08916
112 1.08812
112.5 1.08709
113 1.08607
113.5 1.08506
114 1.08405
114.5 1.08305
115 1.08206
115.5 1.08108
116 1.08011
116.5 1.07914
117 1.07818
117.5 1.07722
118 1.07628
118.5 1.07534
119 1.07441
119.5 1.07349
120 1.07257
120.5 1.07167
121 1.07077
121.5 1.06987
122 1.06899
122.5 1.06811
123 1.06724
123.5 1.06638
124 1.06552
124.5 1.06467
125 1.06383
125.5 1.063
126 1.06217
126.5 1.06135
127 1.06054
127.5 1.05973
128 1.05894
128.5 1.05815
129 1.05736
129.5 1.05658
130 1.05582
130.5 1.05505
131 1.0543
131.5 1.05355
132 1.05281
132.5 1.05207
133 1.05134
133.5 1.05062
134 1.04991
134.5 1.0492
135 1.0485
135.5 1.04781
136 1.04712
136.5 1.04644
137 1.04577
137.5 1.0451
138 1.04444
138.5 1.04379
139 1.04314
139.5 1.0425
140 1.04186
140.5 1.04123
141 1.04061
141.5 1.04
142 1.03939
142.5 1.03879
143 1.03819
143.5 1.0376
144 1.03702
144.5 1.03644
145 1.03587
145.5 1.0353
146 1.03474
146.5 1.03419
147 1.03364
147.5 1.0331
148 1.03256
148.5 1.03203
149 1.03151
149.5 1.03099
150 1.03048
150.5 1.02997
151 1.02947
151.5 1.02898
152 1.02849
152.5 1.028
153 1.02753
153.5 1.02705
154 1.02659
154.5 1.02612
155 1.02567
155.5 1.02522
156 1.02477
156.5 1.02433
157 1.0239
157.5 1.02347
158 1.02304
158.5 1.02262
159 1.02221
159.5 1.0218
160 1.0214
160.5 1.021
161 1.02061
161.5 1.02022
162 1.01983
162.5 1.01945
163 1.01908
163.5 1.01871
164 1.01835
164.5 1.01799
165 1.01763
165.5 1.01728
166 1.01694
166.5 1.0166
167 1.01626
167.5 1.01593
168 1.0156
168.5 1.01528
169 1.01496
169.5 1.01464
170 1.01434
170.5 1.01403
171 1.01373
171.5 1.01343
172 1.01314
172.5 1.01285
173 1.01257
173.5 1.01229
174 1.01201
174.5 1.01174
175 1.01147
175.5 1.01121
176 1.01095
176.5 1.0107
177 1.01044
177.5 1.0102
178 1.00995
178.5 1.00971
179 1.00948
179.5 1.00924
180 1.00902
180.5 1.00879
181 1.00857
181.5 1.00835
182 1.00814
182.5 1.00793
183 1.00772
183.5 1.00752
184 1.00732
184.5 1.00712
185 1.00693
185.5 1.00674
186 1.00655
186.5 1.00637
187 1.00619
187.5 1.00601
188 1.00584
188.5 1.00567
189 1.0055
189.5 1.00533
190 1.00517
190.5 1.00502
191 1.00486
191.5 1.00471
192 1.00456
192.5 1.00441
193 1.00427
193.5 1.00413
194 1.00399
194.5 1.00386
195 1.00373
195.5 1.0036
196 1.00347
196.5 1.00335
197 1.00323
197.5 1.00311
198 1.003
198.5 1.00288
199 1.00278
199.5 1.00267
200 1.00256
200.5 1.00246
201 1.00236
201.5 1.00226
202 1.00217
202.5 1.00208
203 1.00199
203.5 1.0019
204 1.00181
204.5 1.00173
205 1.00165
205.5 1.00157
206 1.00149
206.5 1.00142
207 1.00135
207.5 1.00128
208 1.00121
208.5 1.00115
209 1.00108
209.5 1.00102
210 1.00096
210.5 1.0009
211 1.00085
211.5 1.0008
212 1.00074
212.5 1.0007
213 1.00065
213.5 1.0006
214 1.00056
214.5 1.00052
215 1.00048
215.5 1.00044
216 1.0004
216.5 1.00037
217 1.00033
217.5 1.0003
218 1.00027
218.5 1.00024
219 1.00022
219.5 1.00019
220 1.00017
220.5 1.00015
221 1.00013
221.5 1.00011
222 1.00009
222.5 1.00008
223 1.00006
223.5 1.00005
224 1.00004
224.5 1.00003
225 1.00002
225.5 1.00001
226 1.00001
226.5 1
227 1
227.5 1
228 1
228.5 1
229 1
229.5 1.00001
230 1.00001
230.5 1.00002
231 1.00002
231.5 1.00003
232 1.00004
232.5 1.00005
233 1.00006
233.5 1.00008
234 1.00009
234.5 1.00011
235 1.00012
235.5 1.00014
236 1.00016
236.5 1.00018
237 1.0002
237.5 1.00022
238 1.00024
238.5 1.00026
239 1.00028
239.5 1.00031
240 1.00033
240.5 1.00036
241 1.00039
241.5 1.00042
242 1.00044
242.5 1.00047
243 1.0005
243.5 1.00054
244 1.00057
244.5 1.0006
245 1.00063
245.5 1.00067
246 1.0007
246.5 1.00074
247 1.00078
247.5 1.00081
248 1.00085
248.5 1.00089
249 1.00093
249.5 1.00097
250 1.00101
250.5 1.00105
251 1.00109
251.5 1.00113
252 1.00117
252.5 1.00122
253 1.00126
253.5 1.0013
254 1.00135
254.5 1.00139
255 1.00144
255.5 1.00149
256 1.00153
256.5 1.00158
257 1.00163
257.5 1.00168
258 1.00172
258.5 1.00177
259 1.00182
259.5 1.00187
260 1.00192
260.5 1.00197
261 1.00202
261.5 1.00207
262 1.00212
262.5 1.00218
263 1.00223
263.5 1.00228
264 1.00233
264.5 1.00238
265 1.00244
265.5 1.00249
266 1.00254
266.5 1.0026
267 1.00265
267.5 1.00271
268 1.00276
268.5 1.00282
269 1.00287
269.5 1.00293
270 1.00298
270.5 1.00304
271 1.00309
271.5 1.00315
272 1.00321
272.5 1.00326
273 1.00332
273.5 1.00337
274 1.00343
274.5 1.00349
275 1.00354
275.5 1.0036
276 1.00366
276.5 1.00372
277 1.00377
277.5 1.00383
278 1.00389
278.5 1.00394
279 1.004
279.5 1.00406
280 1.00412
280.5 1.00417
281 1.00423
281.5 1.00429
282 1.00435
282.5 1.00441
283 1.00446
283.5 1.00452
284 1.00458
284.5 1.00464
285 1.00469
285.5 1.00475
286 1.00481
286.5 1.00487
287 1.00492
287.5 1.00498
288 1.00504
288.5 1.00509
289 1.00515
289.5 1.00521
290 1.00527
290.5 1.00532
291 1.00538
291.5 1.00544
292 1.00549
292.5 1.00555
293 1.00561
293.5 1.00566
294 1.00572
294.5 1.00577
295 1.00583
295.5 1.00589
296 1.00594
296.5 1.006
297 1.00605
297.5 1.00611
298 1.00616
298.5 1.00622
299 1.00627
299.5 1.00633
300 1.00638
300.5 1.00644
301 1.00649
301.5 1.00654
302 1.0066
302.5 1.00665
303 1.0067
303.5 1.00676
304 1.00681
304.5 1.00686
305 1.00692
305.5 1.00697
306 1.00702
306.5 1.00707
307 1.00712
307.5 1.00717
308 1.00723
308.5 1.00728
309 1.00733
309.5 1.00738
310 1.00743
310.5 1.00748
311 1.00753
311.5 1.00758
312 1.00763
312.5 1.00768
313 1.00773
313.5 1.00777
314 1.00782
314.5 1.00787
315 1.00792
315.5 1.00797
316 1.00801
316.5 1.00806
317 1.00811
317.5 1.00815
318 1.0082
318.5 1.00825
319 1.00829
319.5 1.00834
320 1.00838
320.5 1.00843
321 1.00847
321.5 1.00852
322 1.00856
322.5 1.0086
323 1.00865
323.5 1.00869
324 1.00873
324.5 1.00878
325 1.00882
325.5 1.00886
326 1.0089
326.5 1.00894
327 1.00898
327.5 1.00902
328 1.00907
328.5 1.00911
329 1.00915
329.5 1.00919
330 1.00922
330.5 1.00926
331 1.0093
331.5 1.00934
332 1.00938
332.5 1.00942
333 1.00945
333.5 1.00949
334 1.00953
334.5 1.00956
335 1.0096
335.5 1.00964
336 1.00967
336.5 1.00971
337 1.00974
337.5 1.00978
338 1.00981
338.5 1.00985
339 1.00988
339.5 1.00991
340 1.00995
340.5 1.00998
341 1.01001
341.5 1.01004
342 1.01008
342.5 1.01011
343 1.01014
343.5 1.01017
344 1.0102
344.5 1.01023
345 1.01026
345.5 1.01029
346 1.01032
346.5 1.01035
347 1.01038
347.5 1.01041
348 1.01043
348.5 1.01046
349 1.01049
349.5 1.01052
350 1.01054
350.5 1.01057
351 1.0106
351.5 1.01062
352 1.01065
352.5 1.01067
353 1.0107
353.5 1.01072
354 1.01075
354.5 1.01077
355 1.01079
355.5 1.01082
356 1.01084
356.5 1.01086
357 1.01089
357.5 1.01091
358 1.01093
358.5 1.01095
359 1.01097
359.5 1.01099
360 1.01101
360.5 1.01104
361 1.01106
361.5 1.01108
362 1.01109
362.5 1.01111
363 1.01113
363.5 1.01115
364 1.01117
364.5 1.01119
365 1.01121
365.5 1.01122
366 1.01124
366.5 1.01126
367 1.01127
367.5 1.01129
368 1.0113
368.5 1.01132
369 1.01134
369.5 1.01135
370 1.01137
370.5 1.01138
371 1.01139
371.5 1.01141
372 1.01142
372.5 1.01143
373 1.01145
373.5 1.01146
374 1.01147
374.5 1.01149
375 1.0115
375.5 1.01151
376 1.01152
376.5 1.01153
377 1.01154
377.5 1.01155
378 1.01156
378.5 1.01157
379 1.01158
379.5 1.01159
380 1.0116
380.5 1.01161
381 1.01162
381.5 1.01163
382 1.01164
382.5 1.01164
383 1.01165
383.5 1.01166
384 1.01167
384.5 1.01167
385 1.01168
385.5 1.01169
386 1.01169
386.5 1.0117
387 1.0117
387.5 1.01171
388 1.01171
388.5 1.01172
389 1.01172
389.5 1.01173
390 1.01173
390.5 1.01173
391 1.01174
391.5 1.01174
392 1.01174
392.5 1.01175
393 1.01175
393.5 1.01175
394 1.01176
394.5 1.01176
395 1.01176
395.5 1.01176
396 1.01176
396.5 1.01176
397 1.01176
397.5 1.01176
398 1.01176
398.5 1.01176
399 1.01176
399.5 1.01176
400 1.01176
400.5 1.01176
401 1.01176
401.5 1.01176
402 1.01176
402.5 1.01176
403 1.01176
403.5 1.01175
404 1.01175
404.5 1.01175
405 1.01175
405.5 1.01174
406 1.01174
406.5 1.01174
407 1.01173
407.5 1.01173
408 1.01173
408.5 1.01172
409 1.01172
409.5 1.01172
410 1.01171
410.5 1.01171
411 1.0117
411.5 1.0117
412 1.01169
412.5 1.01169
413 1.01168
413.5 1.01167
414 1.01167
414.5 1.01166
415 1.01165
415.5 1.01165
416 1.01164
416.5 1.01163
417 1.01163
417.5 1.01162
418 1.01161
418.5 1.01161
419 1.0116
419.5 1.01159
420 1.01158
420.5 1.01157
421 1.01157
421.5 1.01156
422 1.01155
422.5 1.01154
423 1.01153
423.5 1.01152
424 1.01151
424.5 1.0115
425 1.01149
425.5 1.01148
426 1.01147
426.5 1.01146
427 1.01145
427.5 1.01144
428 1.01143
428.5 1.01142
429 1.01141
429.5 1.0114
430 1.01139
430.5 1.01138
431 1.01137
431.5 1.01135
432 1.01134
432.5 1.01133
433 1.01132
433.5 1.01131
434 1.0113
434.5 1.01128
435 1.01127
435.5 1.01126
436 1.01125
436.5 1.01123
437 1.01122
437.5 1.01121
438 1.01119
438.5 1.01118
439 1.01117
439.5 1.01115
440 1.01114
440.5 1.01113
441 1.01111
441.5 1.0111
442 1.01109
442.5 1.01107
443 1.01106
443.5 1.01104
444 1.01103
444.5 1.01101
445 1.011
445.5 1.01098
446 1.01097
446.5 1.01095
447 1.01094
447.5 1.01092
448 1.01091
448.5 1.01089
449 1.01088
449.5 1.01086
450 1.01085
450.5 1.01083
451 1.01082
451.5 1.0108
452 1.01078
452.5 1.01077
453 1.01075
453.5 1.01074
454 1.01072
454.5 1.0107
455 1.01069
455.5 1.01067
456 1.01065
456.5 1.01064
457 1.01062
457.5 1.0106
458 1.01059
458.5 1.01057
459 1.01055
459.5 1.01054
460 1.01052
460.5 1.0105
461 1.01049
461.5 1.01047
462 1.01045
462.5 1.01043
463 1.01042
463.5 1.0104
464 1.01038
464.5 1.01036
465 1.01034
465.5 1.01033
466 1.01031
466.5 1.01029
467 1.01027
467.5 1.01026
468 1.01024
468.5 1.01022
469 1.0102
469.5 1.01018
470 1.01016
470.5 1.01015
471 1.01013
471.5 1.01011
472 1.01009
472.5 1.01007
473 1.01005
473.5 1.01003
474 1.01002
474.5 1.01
475 1.00998
475.5 1.00996
476 1.00994
476.5 1.00992
477 1.0099
477.5 1.00988
478 1.00987
478.5 1.00985
479 1.00983
479.5 1.00981
480 1.00979
480.5 1.00977
481 1.00975
481.5 1.00973
482 1.00971
482.5 1.00969
483 1.00967
483.5 1.00965
484 1.00963
484.5 1.00962
485 1.0096
485.5 1.00958
486 1.00956
486.5 1.00954
487 1.00952
487.5 1.0095
488 1.00948
488.5 1.00946
489 1.00944
489.5 1.00942
490 1.0094
490.5 1.00938
491 1.00936
491.5 1.00934
492 1.00932
492.5 1.0093
493 1.00928
493.5 1.00926
494 1.00924
494.5 1.00922
495 1.0092
495.5 1.00918
496 1.00916
496.5 1.00914
497 1.00912
497.5 1.0091
498 1.00908
498.5 1.00906
499 1.00904
499.5 1.00902
500 1.009
500.5 1.00898
501 1.00896
501.5 1.00894
502 1.00892
502.5 1.0089
503 1.00888
503.5 1.00886
504 1.00884
504.5 1.00883
505 1.00881
505.5 1.00879
506 1.00877
506.5 1.00875
507 1.00873
507.5 1.00871
508 1.00869
508.5 1.00867
509 1.00865
509.5 1.00863
510 1.00861
510.5 1.00859
511 1.00857
511.5 1.00855
512 1.00853
512.5 1.00851
513 1.00849
513.5 1.00847
514 1.00845
514.5 1.00843
515 1.00841
515.5 1.00839
516 1.00837
516.5 1.00835
517 1.00833
517.5 1.00831
518 1.00829
518.5 1.00827
519 1.00825
519.5 1.00823
520 1.00821
520.5 1.00819
521 1.00817
521.5 1.00815
522 1.00813
522.5 1.00811
523 1.00809
523.5 1.00807
524 1.00805
524.5 1.00803
525 1.00801
525.5 1.00799
526 1.00797
526.5 1.00795
527 1.00793
527.5 1.00791
528 1.00789
528.5 1.00788
529 1.00786
529.5 1.00784
530 1.00782
530.5 1.0078
531 1.00778
531.5 1.00776
532 1.00774
532.5 1.00772
533 1.0077
533.5 1.00768
534 1.00766
534.5 1.00764
535 1.00762
535.5 1.0076
536 1.00759
536.5 1.00757
537 1.00755
537.5 1.00753
538 1.00751
538.5 1.00749
539 1.00747
539.5 1.00745
540 1.00743
540.5 1.00741
541 1.00739
541.5 1.00738
542 1.00736
542.5 1.00734
543 1.00732
543.5 1.0073
544 1.00728
544.5 1.00726
545 1.00724
545.5 1.00723
546 1.00721
546.5 1.00719
547 1.00717
547.5 1.00715
548 1.00713
548.5 1.00711
549 1.0071
549.5 1.00708
550 1.00706
550.5 1.00704
551 1.00702
551.5 1.007
552 1.00699
552.5 1.00697
553 1.00695
553.5 1.00693
554 1.00691
554.5 1.00689
555 1.00688
555.5 1.00686
556 1.00684
556.5 1.00682
557 1.0068
557.5 1.00679
558 1.00677
558.5 1.00675
559 1.00673
559.5 1.00671
560 1.0067
560.5 1.00668
561 1.00666
561.5 1.00664
562 1.00663
562.5 1.00661
563 1.00659
563.5 1.00657
564 1.00655
564.5 1.00654
565 1.00652
565.5 1.0065
566 1.00648
566.5 1.00647
567 1.00645
567.5 1.00643
568 1.00642
568.5 1.0064
569 1.00638
569.5 1.00636
570 1.00635
570.5 1.00633
571 1.00631
571.5 1.0063
572 1.00628
572.5 1.00626
573 1.00624
573.5 1.00623
574 1.00621
574.5 1.00619
575 1.00618
575.5 1.00616
576 1.00614
576.5 1.00613
577 1.00611
577.5 1.00609
578 1.00608
578.5 1.00606
579 1.00604
579.5 1.00603
580 1.00601
580.5 1.00599
581 1.00598
581.5 1.00596
582 1.00595
582.5 1.00593
583 1.00591
583.5 1.0059
584 1.00588
584.5 1.00587
585 1.00585
585.5 1.00583
586 1.00582
586.5 1.0058
587 1.00579
587.5 1.00577
588 1.00575
588.5 1.00574
589 1.00572
589.5 1.00571
590 1.00569
590.5 1.00567
591 1.00566
591.5 1.00564
592 1.00563
592.5 1.00561
593 1.0056
593.5 1.00558
594 1.00557
594.5 1.00555
595 1.00554
595.5 1.00552
596 1.0055
596.5 1.00549
597 1.00547
597.5 1.00546
598 1.00544
598.5 1.00543
599 1.00541
599.5 1.0054
600 1.00538
600.5 1.00537
601 1.00535
601.5 1.00534
602 1.00532
602.5 1.00531
603 1.0053
603.5 1.00528
604 1.00527
604.5 1.00525
605 1.00524
605.5 1.00522
606 1.00521
606.5 1.00519
607 1.00518
607.5 1.00516
608 1.00515
608.5 1.00514
609 1.00512
609.5 1.00511
610 1.00509
610.5 1.00508
611 1.00506
611.5 1.00505
612 1.00504
612.5 1.00502
613 1.00501
613.5 1.00499
614 1.00498
614.5 1.00497
615 1.00495
615.5 1.00494
616 1.00492
616.5 1.00491
617 1.0049
617.5 1.00488
618 1.00487
618.5 1.00486
619 1.00484
619.5 1.00483
620 1.00482
620.5 1.0048
621 1.00479
621.5 1.00478
622 1.00476
622.5 1.00475
623 1.00474
623.5 1.00472
624 1.00471
624.5 1.0047
625 1.00468
625.5 1.00467
626 1.00466
626.5 1.00464
627 1.00463
627.5 1.00462
628 1.0046
628.5 1.00459
629 1.00458
629.5 1.00457
630 1.00455
630.5 1.00454
631 1.00453
631.5 1.00452
632 1.0045
632.5 1.00449
633 1.00448
633.5 1.00447
634 1.00445
634.5 1.00444
635 1.00443
635.5 1.00442
636 1.0044
636.5 1.00439
637 1.00438
637.5 1.00437
638 1.00435
638.5 1.00434
639 1.00433
639.5 1.00432
640 1.00431
640.5 1.00429
641 1.00428
641.5 1.00427
642 1.00426
642.5 1.00425
643 1.00423
643.5 1.00422
644 1.00421
644.5 1.0042
645 1.00419
645.5 1.00417
646 1.00416
646.5 1.00415
647 1.00414
647.5 1.00413
648 1.00412
648.5 1.00411
649 1.00409
649.5 1.00408
650 1.00407
650.5 1.00406
651 1.00405
651.5 1.00404
652 1.00403
652.5 1.00401
653 1.004
653.5 1.00399
654 1.00398
654.5 1.00397
655 1.00396
655.5 1.00395
656 1.00394
656.5 1.00393
657 1.00391
657.5 1.0039
658 1.00389
658.5 1.00388
659 1.00387
659.5 1.00386
660 1.00385
660.5 1.00384
661 1.00383
661.5 1.00382
662 1.00381
662.5 1.0038
663 1.00379
663.5 1.00377
664 1.00376
664.5 1.00375
665 1.00374
665.5 1.00373
666 1.00372
666.5 1.00371
667 1.0037
667.5 1.00369
668 1.00368
668.5 1.00367
669 1.00366
669.5 1.00365
670 1.00364
670.5 1.00363
671 1.00362
671.5 1.00361
672 1.0036
672.5 1.00359
673 1.00358
673.5 1.00357
674 1.00356
674.5 1.00355
675 1.00354
675.5 1.00353
676 1.00352
676.5 1.00351
677 1.0035
677.5 1.00349
678 1.00348
678.5 1.00347
679 1.00346
679.5 1.00345
680 1.00344
680.5 1.00343
681 1.00342
681.5 1.00342
682 1.00341
682.5 1.0034
683 1.00339
683.5 1.00338
684 1.00337
684.5 1.00336
685 1.00335
685.5 1.00334
686 1.00333
686.5 1.00332
687 1.00331
687.5 1.0033
688 1.00329
688.5 1.00329
689 1.00328
689.5 1.00327
690 1.00326
690.5 1.00325
691 1.00324
691.5 1.00323
692 1.00322
692.5 1.00321
693 1.00321
693.5 1.0032
694 1.00319
694.5 1.00318
695 1.00317
695.5 1.00316
696 1.00315
696.5 1.00314
697 1.00314
697.5 1.00313
698 1.00312
698.5 1.00311
699 1.0031
699.5 1.00309
700 1.00308
700.5 1.00308
701 1.00307
701.5 1.00306
702 1.00305
702.5 1.00304
703 1.00303
703.5 1.00303
704 1.00302
704.5 1.00301
705 1.003
705.5 1.00299
706 1.00298
706.5 1.00298
707 1.00297
707.5 1.00296
708 1.00295
708.5 1.00294
709 1.00294
709.5 1.00293
710 1.00292
710.5 1.00291
711 1.0029
711.5 1.0029
712 1.00289
712.5 1.00288
713 1.00287
713.5 1.00287
714 1.00286
714.5 1.00285
715 1.00284
715.5 1.00283
716 1.00283
716.5 1.00282
717 1.00281
717.5 1.0028
718 1.0028
718.5 1.00279
719 1.00278
719.5 1.00277
720 1.00277
720.5 1.00276
721 1.00275
721.5 1.00274
722 1.00274
722.5 1.00273
723 1.00272
723.5 1.00271
724 1.00271
724.5 1.0027
725 1.00269
725.5 1.00269
726 1.00268
726.5 1.00267
727 1.00266
727.5 1.00266
728 1.00265
728.5 1.00264
729 1.00264
729.5 1.00263
730 1.00262
730.5 1.00261
731 1.00261
731.5 1.0026
732 1.00259
732.5 1.00259
733 1.00258
733.5 1.00257
734 1.00257
734.5 1.00256
735 1.00255
735.5 1.00254
736 1.00254
736.5 1.00253
737 1.00252
737.5 1.00252
738 1.00251
738.5 1.0025
739 1.0025
739.5 1.00249
740 1.00248
740.5 1.00248
741 1.00247
741.5 1.00246
742 1.00246
742.5 1.00245
743 1.00245
743.5 1.00244
744 1.00243
744.5 1.00243
745 1.00242
745.5 1.00241
746 1.00241
746.5 1.0024
747 1.00239
747.5 1.00239
748 1.00238
748.5 1.00237
749 1.00237
749.5 1.00236
750 1.00236
750.5 1.00235
751 1.00234
751.5 1.00234
752 1.00233
752.5 1.00233
753 1.00232
753.5 1.00231
754 1.00231
754.5 1.0023
755 1.00229
755.5 1.00229
756 1.00228
756.5 1.00228
757 1.00227
757.5 1.00226
758 1.00226
758.5 1.00225
759 1.00225
759.5 1.00224
760 1.00224
760.5 1.00223
761 1.00222
761.5 1.00222
762 1.00221
762.5 1.00221
763 1.0022
763.5 1.00219
764 1.00219
764.5 1.00218
765 1.00218
765.5 1.00217
766 1.00217
766.5 1.00216
767 1.00216
767.5 1.00215
768 1.00214
768.5 1.00214
769 1.00213
769.5 1.00213
770 1.00212
770.5 1.00212
771 1.00211
771.5 1.00211
772 1.0021
772.5 1.00209
773 1.00209
773.5 1.00208
774 1.00208
774.5 1.00207
775 1.00207
775.5 1.00206
776 1.00206
776.5 1.00205
777 1.00205
777.5 1.00204
778 1.00204
778.5 1.00203
779 1.00203
779.5 1.00202
780 1.00202
780.5 1.00201
781 1.002
781.5 1.002
782 1.00199
782.5 1.00199
783 1.00198
783.5 1.00198
784 1.00197
784.5 1.00197
785 1.00196
785.5 1.00196
786 1.00195
786.5 1.00195
787 1.00194
787.5 1.00194
788 1.00193
788.5 1.00193
789 1.00192
789.5 1.00192
790 1.00191
790.5 1.00191
791 1.0019
791.5 1.0019
792 1.0019
792.5 1.00189
793 1.00189
793.5 1.00188
794 1.00188
794.5 1.00187
795 1.00187
795.5 1.00186
796 1.00186
796.5 1.00185
797 1.00185
797.5 1.00184
798 1.00184
798.5 1.00183
799 1.00183
799.5 1.00182
800 1.00182
800.5 1.00182
801 1.00181
801.5 1.00181
802 1.0018
802.5 1.0018
803 1.00179
803.5 1.00179
804 1.00178
804.5 1.00178
805 1.00177
805.5 1.00177
806 1.00177
806.5 1.00176
807 1.00176
807.5 1.00175
808 1.00175
808.5 1.00174
809 1.00174
809.5 1.00174
810 1.00173
810.5 1.00173
811 1.00172
811.5 1.00172
812 1.00171
812.5 1.00171
813 1.00171
813.5 1.0017
814 1.0017
814.5 1.00169
815 1.00169
815.5 1.00168
816 1.00168
816.5 1.00168
817 1.00167
817.5 1.00167
818 1.00166
818.5 1.00166
819 1.00166
819.5 1.00165
820 1.00165
820.5 1.00164
821 1.00164
821.5 1.00164
822 1.00163
822.5 1.00163
823 1.00162
823.5 1.00162
824 1.00162
824.5 1.00161
825 1.00161
825.5 1.0016
826 1.0016
826.5 1.0016
827 1.00159
827.5 1.00159
828 1.00158
828.5 1.00158
829 1.00158
829.5 1.00157
830 1.00157
830.5 1.00156
831 1.00156
831.5 1.00156
832 1.00155
832.5 1.00155
833 1.00155
833.5 1.00154
834 1.00154
834.5 1.00153
835 1.00153
835.5 1.00153
836 1.00152
836.5 1.00152
837 1.00152
837.5 1.00151
838 1.00151
838.5 1.0015
839 1.0015
839.5 1.0015
840 1.00149
840.5 1.00149
841 1.00149
841.5 1.00148
842 1.00148
842.5 1.00148
843 1.00147
843.5 1.00147
844 1.00147
844.5 1.00146
845 1.00146
845.5 1.00145
846 1.00145
846.5 1.00145
847 1.00144
847.5 1.00144
848 1.00144
848.5 1.00143
849 1.00143
849.5 1.00143
850 1.00142
850.5 1.00142
851 1.00142
851.5 1.00141
852 1.00141
852.5 1.00141
853 1.0014
853.5 1.0014
854 1.0014
854.5 1.00139
855 1.00139
855.5 1.00139
856 1.00138
856.5 1.00138
857 1.00138
857.5 1.00137
858 1.00137
858.5 1.00137
859 1.00136
859.5 1.00136
860 1.00136
860.5 1.00135
861 1.00135
861.5 1.00135
862 1.00134
862.5 1.00134
863 1.00134
863.5 1.00133
864 1.00133
864.5 1.00133
865 1.00133
865.5 1.00132
866 1.00132
866.5 1.00132
867 1.00131
867.5 1.00131
868 1.00131
868.5 1.0013
869 1.0013
869.5 1.0013
870 1.00129
870.5 1.00129
871 1.00129
871.5 1.00129
872 1.00128
872.5 1.00128
873 1.00128
873.5 1.00127
874 1.00127
874.5 1.00127
875 1.00126
875.5 1.00126
876 1.00126
876.5 1.00126
877 1.00125
877.5 1.00125
878 1.00125
878.5 1.00124
879 1.00124
879.5 1.00124
880 1.00124
880.5 1.00123
881 1.00123
881.5 1.00123
882 1.00122
882.5 1.00122
883 1.00122
883.5 1.00122
884 1.00121
884.5 1.00121
885 1.00121
885.5 1.0012
886 1.0012
886.5 1.0012
887 1.0012
887.5 1.00119
888 1.00119
888.5 1.00119
889 1.00119
889.5 1.00118
890 1.00118
890.5 1.00118
891 1.00117
891.5 1.00117
892 1.00117
892.5 1.00117
893 1.00116
893.5 1.00116
894 1.00116
894.5 1.00116
895 1.00115
895.5 1.00115
896 1.00115
896.5 1.00115
897 1.00114
897.5 1.00114
898 1.00114
898.5 1.00113
899 1.00113
899.5 1.00113
900 1.00113
900.5 1.00112
901 1.00112
901.5 1.00112
902 1.00112
902.5 1.00111
903 1.00111
903.5 1.00111
904 1.00111
904.5 1.0011
905 1.0011
905.5 1.0011
906 1.0011
906.5 1.00109
907 1.00109
907.5 1.00109
908 1.00109
908.5 1.00108
909 1.00108
909.5 1.00108
910 1.00108
910.5 1.00107
911 1.00107
911.5 1.00107
912 1.00107
912.5 1.00107
913 1.00106
913.5 1.00106
914 1.00106
914.5 1.00106
915 1.00105
915.5 1.00105
916 1.00105
916.5 1.00105
917 1.00104
917.5 1.00104
918 1.00104
918.5 1.00104
919 1.00103
919.5 1.00103
920 1.00103
920.5 1.00103
921 1.00103
921.5 1.00102
922 1.00102
922.5 1.00102
923 1.00102
923.5 1.00101
924 1.00101
924.5 1.00101
925 1.00101
925.5 1.00101
926 1.001
926.5 1.001
927 1.001
927.5 1.001
928 1.00099
928.5 1.00099
929 1.00099
929.5 1.00099
930 1.00099
930.5 1.00098
931 1.00098
931.5 1.00098
932 1.00098
932.5 1.00097
933 1.00097
933.5 1.00097
934 1.00097
934.5 1.00097
935 1.00096
935.5 1.00096
936 1.00096
936.5 1.00096
937 1.00096
937.5 1.00095
938 1.00095
938.5 1.00095
939 1.00095
939.5 1.00095
940 1.00094
940.5 1.00094
941 1.00094
941.5 1.00094
942 1.00094
942.5 1.00093
943 1.00093
943.5 1.00093
944 1.00093
944.5 1.00093
945 1.00092
945.5 1.00092
946 1.00092
946.5 1.00092
947 1.00092
947.5 1.00091
948 1.00091
948.5 1.00091
949 1.00091
949.5 1.00091
950 1.0009
950.5 1.0009
951 1.0009
951.5 1.0009
952 1.0009
952.5 1.00089
953 1.00089
953.5 1.00089
954 1.00089
954.5 1.00089
955 1.00088
955.5 1.00088
956 1.00088
956.5 1.00088
957 1.00088
957.5 1.00087
958 1.00087
958.5 1.00087
959 1.00087
959.5 1.00087
960 1.00087
960.5 1.00086
961 1.00086
961.5 1.00086
962 1.00086
962.5 1.00086
963 1.00085
963.5 1.00085
964 1.00085
964.5 1.00085
965 1.00085
965.5 1.00085
966 1.00084
966.5 1.00084
967 1.00084
967.5 1.00084
968 1.00084
968.5 1.00083
969 1.00083
969.5 1.00083
970 1.00083
970.5 1.00083
971 1.00083
971.5 1.00082
972 1.00082
972.5 1.00082
973 1.00082
973.5 1.00082
974 1.00082
974.5 1.00081
975 1.00081
975.5 1.00081
976 1.00081
976.5 1.00081
977 1.00081
977.5 1.0008
978 1.0008
978.5 1.0008
979 1.0008
979.5 1.0008
980 1.0008
980.5 1.00079
981 1.00079
981.5 1.00079
982 1.00079
982.5 1.00079
983 1.00079
983.5 1.00078
984 1.00078
984.5 1.00078
985 1.00078
985.5 1.00078
986 1.00078
986.5 1.00077
987 1.00077
987.5 1.00077
988 1.00077
988.5 1.00077
989 1.00077
989.5 1.00076
990 1.00076
990.5 1.00076
991 1.00076
991.5 1.00076
992 1.00076
992.5 1.00076
993 1.00075
993.5 1.00075
994 1.00075
994.5 1.00075
995 1.00075
995.5 1.00075
996 1.00074
996.5 1.00074
997 1.00074
997.5 1.00074
998 1.00074
998.5 1.00074
999 1.00074
999.5 1.00073
1000 1.00073
1000.5 1.00073
1001 1.00073
1001.5 1.00073
1002 1.00073
1002.5 1.00072
1003 1.00072
1003.5 1.00072
1004 1.00072
1004.5 1.00072
1005 1.00072
1005.5 1.00072
1006 1.00071
1006.5 1.00071
1007 1.00071
1007.5 1.00071
1008 1.00071
1008.5 1.00071
1009 1.00071
1009.5 1.0007
1010 1.0007
1010.5 1.0007
1011 1.0007
1011.5 1.0007
1012 1.0007
1012.5 1.0007
1013 1.00069
1013.5 1.00069
1014 1.00069
1014.5 1.00069
1015 1.00069
1015.5 1.00069
1016 1.00069
1016.5 1.00068
1017 1.00068
1017.5 1.00068
1018 1.00068
1018.5 1.00068
1019 1.00068
1019.5 1.00068
1020 1.00068
1020.5 1.00067
1021 1.00067
1021.5 1.00067
1022 1.00067
1022.5 1.00067
1023 1.00067
1023.5 1.00067
1024 1.00066
1024.5 1.00066
1025 1.00066
1025.5 1.00066
1026 1.00066
1026.5 1.00066
1027 1.00066
1027.5 1.00066
1028 1.00065
1028.5 1.00065
1029 1.00065
1029.5 1.00065
1030 1.00065
1030.5 1.00065
1031 1.00065
1031.5 1.00064
1032 1.00064
1032.5 1.00064
1033 1.00064
1033.5 1.00064
1034 1.00064
1034.5 1.00064
1035 1.00064
1035.5 1.00063
1036 1.00063
1036.5 1.00063
1037 1.00063
1037.5 1.00063
1038 1.00063
1038.5 1.00063
1039 1.00063
1039.5 1.00062
1040 1.00062
1040.5 1.00062
1041 1.00062
1041.5 1.00062
1042 1.00062
1042.5 1.00062
1043 1.00062
1043.5 1.00062
1044 1.00061
1044.5 1.00061
1045 1.00061
1045.5 1.00061
1046 1.00061
1046.5 1.00061
1047 1.00061
1047.5 1.00061
1048 1.0006
1048.5 1.0006
1049 1.0006
1049.5 1.0006
1050 1.0006
1050.5 1.0006
1051 1.0006
1051.5 1.0006
1052 1.0006
1052.5 1.00059
1053 1.00059
1053.5 1.00059
1054 1.00059
1054.5 1.00059
1055 1.00059
1055.5 1.00059
1056 1.00059
1056.5 1.00058
1057 1.00058
1057.5 1.00058
1058 1.00058
1058.5 1.00058
1059 1.00058
1059.5 1.00058
1060 1.00058
1060.5 1.00058
1061 1.00057
1061.5 1.00057
1062 1.00057
1062.5 1.00057
1063 1.00057
1063.5 1.00057
1064 1.00057
1064.5 1.00057
1065 1.00057
1065.5 1.00056
1066 1.00056
1066.5 1.00056
1067 1.00056
1067.5 1.00056
1068 1.00056
1068.5 1.00056
1069 1.00056
1069.5 1.00056
1070 1.00056
1070.5 1.00055
1071 1.00055
1071.5 1.00055
1072 1.00055
1072.5 1.00055
1073 1.00055
1073.5 1.00055
1074 1.00055
1074.5 1.00055
1075 1.00054
1075.5 1.00054
1076 1.00054
1076.5 1.00054
1077 1.00054
1077.5 1.00054
1078 1.00054
1078.5 1.00054
1079 1.00054
1079.5 1.00054
1080 1.00053
1080.5 1.00053
1081 1.00053
1081.5 1.00053
1082 1.00053
1082.5 1.00053
1083 1.00053
1083.5 1.00053
1084 1.00053
1084.5 1.00053
1085 1.00052
1085.5 1.00052
1086 1.00052
1086.5 1.00052
1087 1.00052
1087.5 1.00052
1088 1.00052
1088.5 1.00052
1089 1.00052
1089.5 1.00052
1090 1.00051
1090.5 1.00051
1091 1.00051
1091.5 1.00051
1092 1.00051
1092.5 1.00051
1093 1.00051
1093.5 1.00051
1094 1.00051
1094.5 1.00051
1095 1.00051
1095.5 1.0005
1096 1.0005
1096.5 1.0005
1097 1.0005
1097.5 1.0005
1098 1.0005
1098.5 1.0005
1099 1.0005
1099.5 1.0005
1100 1.0005
1100.5 1.00049
1101 1.00049
1101.5 1.00049
1102 1.00049
1102.5 1.00049
1103 1.00049
1103.5 1.00049
1104 1.00049
1104.5 1.00049
1105 1.00049
1105.5 1.00049
1106 1.00048
1106.5 1.00048
1107 1.00048
1107.5 1.00048
1108 1.00048
1108.5 1.00048
1109 1.00048
1109.5 1.00048
1110 1.00048
1110.5 1.00048
1111 1.00048
1111.5 1.00048
1112 1.00047
1112.5 1.00047
1113 1.00047
1113.5 1.00047
1114 1.00047
1114.5 1.00047
1115 1.00047
1115.5 1.00047
1116 1.00047
1116.5 1.00047
1117 1.00047
1117.5 1.00046
1118 1.00046
1118.5 1.00046
1119 1.00046
1119.5 1.00046
1120 1.00046
1120.5 1.00046
1121 1.00046
1121.5 1.00046
1122 1.00046
1122.5 1.00046
1123 1.00046
1123.5 1.00045
1124 1.00045
1124.5 1.00045
1125 1.00045
1125.5 1.00045
1126 1.00045
1126.5 1.00045
1127 1.00045
1127.5 1.00045
1128 1.00045
1128.5 1.00045
1129 1.00045
1129.5 1.00045
1130 1.00044
1130.5 1.00044
1131 1.00044
1131.5 1.00044
1132 1.00044
1132.5 1.00044
1133 1.00044
1133.5 1.00044
1134 1.00044
1134.5 1.00044
1135 1.00044
1135.5 1.00044
1136 1.00043
1136.5 1.00043
1137 1.00043
1137.5 1.00043
1138 1.00043
1138.5 1.00043
1139 1.00043
1139.5 1.00043
1140 1.00043
1140.5 1.00043
1141 1.00043
1141.5 1.00043
1142 1.00043
1142.5 1.00042
1143 1.00042
1143.5 1.00042
1144 1.00042
1144.5 1.00042
1145 1.00042
1145.5 1.00042
1146 1.00042
1146.5 1.00042
1147 1.00042
1147.5 1.00042
1148 1.00042
1148.5 1.00042
1149 1.00042
1149.5 1.00041
1150 1.00041
1150.5 1.00041
1151 1.00041
1151.5 1.00041
1152 1.00041
1152.5 1.00041
1153 1.00041
1153.5 1.00041
1154 1.00041
1154.5 1.00041
1155 1.00041
1155.5 1.00041
1156 1.0004
1156.5 1.0004
1157 1.0004
1157.5 1.0004
1158 1.0004
1158.5 1.0004
1159 1.0004
1159.5 1.0004
1160 1.0004
1160.5 1.0004
1161 1.0004
1161.5 1.0004
1162 1.0004
1162.5 1.0004
1163 1.0004
1163.5 1.00039
1164 1.00039
1164.5 1.00039
1165 1.00039
1165.5 1.00039
1166 1.00039
1166.5 1.00039
1167 1.00039
1167.5 1.00039
1168 1.00039
1168.5 1.00039
1169 1.00039
1169.5 1.00039
1170 1.00039
1170.5 1.00038
1171 1.00038
1171.5 1.00038
1172 1.00038
1172.5 1.00038
1173 1.00038
1173.5 1.00038
1174 1.00038
1174.5 1.00038
1175 1.00038
1175.5 1.00038
1176 1.00038
1176.5 1.00038
1177 1.00038
1177.5 1.00038
1178 1.00037
1178.5 1.00037
1179 1.00037
1179.5 1.00037
1180 1.00037
1180.5 1.00037
1181 1.00037
1181.5 1.00037
1182 1.00037
1182.5 1.00037
1183 1.00037
1183.5 1.00037
1184 1.00037
1184.5 1.00037
1185 1.00037
1185.5 1.00037
1186 1.00036
1186.5 1.00036
1187 1.00036
1187.5 1.00036
1188 1.00036
1188.5 1.00036
1189 1.00036
1189.5 1.00036
1190 1.00036
1190.5 1.00036
1191 1.00036
1191.5 1.00036
1192 1.00036
1192.5 1.00036
1193 1.00036
1193.5 1.00036
1194 1.00035
1194.5 1.00035
1195 1.00035
1195.5 1.00035
1196 1.00035
1196.5 1.00035
1197 1.00035
1197.5 1.00035
1198 1.00035
1198.5 1.00035
1199 1.00035
1199.5 1.00035
1200 1.00035
1200.5 1.00035
1201 1.00035
1201.5 1.00035
1202 1.00035
1202.5 1.00034
1203 1.00034
1203.5 1.00034
1204 1.00034
1204.5 1.00034
1205 1.00034
1205.5 1.00034
1206 1.00034
1206.5 1.00034
1207 1.00034
1207.5 1.00034
1208 1.00034
1208.5 1.00034
1209 1.00034
1209.5 1.00034
1210 1.00034
1210.5 1.00034
1211 1.00034
1211.5 1.00033
1212 1.00033
1212.5 1.00033
1213 1.00033
1213.5 1.00033
1214 1.00033
1214.5 1.00033
1215 1.00033
1215.5 1.00033
1216 1.00033
1216.5 1.00033
1217 1.00033
1217.5 1.00033
1218 1.00033
1218.5 1.00033
1219 1.00033
1219.5 1.00033
1220 1.00033
1220.5 1.00032
1221 1.00032
1221.5 1.00032
1222 1.00032
1222.5 1.00032
1223 1.00032
1223.5 1.00032
1224 1.00032
1224.5 1.00032
1225 1.00032
1225.5 1.00032
1226 1.00032
1226.5 1.00032
1227 1.00032
1227.5 1.00032
1228 1.00032
1228.5 1.00032
1229 1.00032
1229.5 1.00032
1230 1.00031
1230.5 1.00031
1231 1.00031
1231.5 1.00031
1232 1.00031
1232.5 1.00031
1233 1.00031
1233.5 1.00031
1234 1.00031
1234.5 1.00031
1235 1.00031
1235.5 1.00031
1236 1.00031
1236.5 1.00031
1237 1.00031
1237.5 1.00031
1238 1.00031
1238.5 1.00031
1239 1.00031
1239.5 1.0003
1240 1.0003
1240.5 1.0003
1241 1.0003
1241.5 1.0003
1242 1.0003
1242.5 1.0003
1243 1.0003
1243.5 1.0003
1244 1.0003
1244.5 1.0003
1245 1.0003
1245.5 1.0003
1246 1.0003
1246.5 1.0003
1247 1.0003
1247.5 1.0003
1248 1.0003
1248.5 1.0003
1249 1.0003
1249.5 1.0003
1250 1.00029
1250.5 1.00029
1251 1.00029
1251.5 1.00029
1252 1.00029
1252.5 1.00029
1253 1.00029
1253.5 1.00029
1254 1.00029
1254.5 1.00029
1255 1.00029
1255.5 1.00029
1256 1.00029
1256.5 1.00029
1257 1.00029
1257.5 1.00029
1258 1.00029
1258.5 1.00029
1259 1.00029
1259.5 1.00029
1260 1.00029
1260.5 1.00028
1261 1.00028
1261.5 1.00028
1262 1.00028
1262.5 1.00028
1263 1.00028
1263.5 1.00028
1264 1.00028
1264.5 1.00028
1265 1.00028
1265.5 1.00028
1266 1.00028
1266.5 1.00028
1267 1.00028
1267.5 1.00028
1268 1.00028
1268.5 1.00028
1269 1.00028
1269.5 1.00028
1270 1.00028
1270.5 1.00028
1271 1.00028
1271.5 1.00027
1272 1.00027
1272.5 1.00027
1273 1.00027
1273.5 1.00027
1274 1.00027
1274.5 1.00027
1275 1.00027
1275.5 1.00027
1276 1.00027
1276.5 1.00027
1277 1.00027
1277.5 1.00027
1278 1.00027
1278.5 1.00027
1279 1.00027
1279.5 1.00027
1280 1.00027
1280.5 1.00027
1281 1.00027
1281.5 1.00027
1282 1.00027
1282.5 1.00027
1283 1.00026
1283.5 1.00026
1284 1.00026
1284.5 1.00026
1285 1.00026
1285.5 1.00026
1286 1.00026
1286.5 1.00026
1287 1.00026
1287.5 1.00026
1288 1.00026
1288.5 1.00026
1289 1.00026
1289.5 1.00026
1290 1.00026
1290.5 1.00026
1291 1.00026
1291.5 1.00026
1292 1.00026
1292.5 1.00026
1293 1.00026
1293.5 1.00026
1294 1.00026
1294.5 1.00026
1295 1.00026
1295.5 1.00025
1296 1.00025
1296.5 1.00025
1297 1.00025
1297.5 1.00025
1298 1.00025
1298.5 1.00025
1299 1.00025
1299.5 1.00025
1300 1.00025
1300.5 1.00025
1301 1.00025
1301.5 1.00025
1302 1.00025
1302.5 1.00025
1303 1.00025
1303.5 1.00025
1304 1.00025
1304.5 1.00025
1305 1.00025
1305.5 1.00025
1306 1.00025
1306.5 1.00025
1307 1.00025
1307.5 1.00025
1308 1.00024
1308.5 1.00024
1309 1.00024
1309.5 1.00024
1310 1.00024
1310.5 1.00024
1311 1.00024
1311.5 1.00024
1312 1.00024
1312.5 1.00024
1313 1.00024
1313.5 1.00024
1314 1.00024
1314.5 1.00024
1315 1.00024
1315.5 1.00024
1316 1.00024
1316.5 1.00024
1317 1.00024
1317.5 1.00024
1318 1.00024
1318.5 1.00024
1319 1.00024
1319.5 1.00024
1320 1.00024
1320.5 1.00024
1321 1.00024
1321.5 1.00023
1322 1.00023
1322.5 1.00023
1323 1.00023
1323.5 1.00023
1324 1.00023
1324.5 1.00023
1325 1.00023
1325.5 1.00023
1326 1.00023
1326.5 1.00023
1327 1.00023
1327.5 1.00023
1328 1.00023
1328.5 1.00023
1329 1.00023
1329.5 1.00023
1330 1.00023
1330.5 1.00023
1331 1.00023
1331.5 1.00023
1332 1.00023
1332.5 1.00023
1333 1.00023
1333.5 1.00023
1334 1.00023
1334.5 1.00023
1335 1.00023
1335.5 1.00023
1336 1.00022
1336.5 1.00022
1337 1.00022
1337.5 1.00022
1338 1.00022
1338.5 1.00022
1339 1.00022
1339.5 1.00022
1340 1.00022
1340.5 1.00022
1341 1.00022
1341.5 1.00022
1342 1.00022
1342.5 1.00022
1343 1.00022
1343.5 1.00022
1344 1.00022
1344.5 1.00022
1345 1.00022
1345.5 1.00022
1346 1.00022
1346.5 1.00022
1347 1.00022
1347.5 1.00022
1348 1.00022
1348.5 1.00022
1349 1.00022
1349.5 1.00022
1350 1.00022
1350.5 1.00022
1351 1.00021
1351.5 1.00021
1352 1.00021
1352.5 1.00021
1353 1.00021
1353.5 1.00021
1354 1.00021
1354.5 1.00021
1355 1.00021
1355.5 1.00021
1356 1.00021
1356.5 1.00021
1357 1.00021
1357.5 1.00021
1358 1.00021
1358.5 1.00021
1359 1.00021
1359.5 1.00021
1360 1.00021
1360.5 1.00021
1361 1.00021
1361.5 1.00021
1362 1.00021
1362.5 1.00021
1363 1.00021
1363.5 1.00021
1364 1.00021
1364.5 1.00021
1365 1.00021
1365.5 1.00021
1366 1.00021
1366.5 1.00021
1367 1.0002
1367.5 1.0002
1368 1.0002
1368.5 1.0002
1369 1.0002
1369.5 1.0002
1370 1.0002
1370.5 1.0002
1371 1.0002
1371.5 1.0002
1372 1.0002
1372.5 1.0002
1373 1.0002
1373.5 1.0002
1374 1.0002
1374.5 1.0002
1375 1.0002
1375.5 1.0002
1376 1.0002
1376.5 1.0002
1377 1.0002
1377.5 1.0002
1378 1.0002
1378.5 1.0002
1379 1.0002
1379.5 1.0002
1380 1.0002
1380.5 1.0002
1381 1.0002
1381.5 1.0002
1382 1.0002
1382.5 1.0002
1383 1.0002
1383.5 1.0002
1384 1.00019
1384.5 1.00019
1385 1.00019
1385.5 1.00019
1386 1.00019
1386.5 1.00019
1387 1.00019
1387.5 1.00019
1388 1.00019
1388.5 1.00019
1389 1.00019
1389.5 1.00019
1390 1.00019
1390.5 1.00019
1391 1.00019
1391.5 1.00019
1392 1.00019
1392.5 1.00019
1393 1.00019
1393.5 1.00019
1394 1.00019
1394.5 1.00019
1395 1.00019
1395.5 1.00019
1396 1.00019
1396.5 1.00019
1397 1.00019
1397.5 1.00019
1398 1.00019
1398.5 1.00019
1399 1.00019
1399.5 1.00019
1400 1.00019
1400.5 1.00019
1401 1.00019
1401.5 1.00019
1402 1.00018
1402.5 1.00018
1403 1.00018
1403.5 1.00018
1404 1.00018
1404.5 1.00018
1405 1.00018
1405.5 1.00018
1406 1.00018
1406.5 1.00018
1407 1.00018
1407.5 1.00018
1408 1.00018
1408.5 1.00018
1409 1.00018
1409.5 1.00018
1410 1.00018
1410.5 1.00018
1411 1.00018
1411.5 1.00018
1412 1.00018
1412.5 1.00018
1413 1.00018
1413.5 1.00018
1414 1.00018
1414.5 1.00018
1415 1.00018
1415.5 1.00018
1416 1.00018
1416.5 1.00018
1417 1.00018
1417.5 1.00018
1418 1.00018
1418.5 1.00018
1419 1.00018
1419.5 1.00018
1420 1.00018
1420.5 1.00018
1421 1.00018
1421.5 1.00017
1422 1.00017
1422.5 1.00017
1423 1.00017
1423.5 1.00017
1424 1.00017
1424.5 1.00017
1425 1.00017
1425.5 1.00017
1426 1.00017
1426.5 1.00017
1427 1.00017
1427.5 1.00017
1428 1.00017
1428.5 1.00017
1429 1.00017
1429.5 1.00017
1430 1.00017
1430.5 1.00017
1431 1.00017
1431.5 1.00017
1432 1.00017
1432.5 1.00017
1433 1.00017
1433.5 1.00017
1434 1.00017
1434.5 1.00017
1435 1.00017
1435.5 1.00017
1436 1.00017
1436.5 1.00017
1437 1.00017
1437.5 1.00017
1438 1.00017
1438.5 1.00017
1439 1.00017
1439.5 1.00017
1440 1.00017
1440.5 1.00017
1441 1.00017
1441.5 1.00017
1442 1.00016
1442.5 1.00016
1443 1.00016
1443.5 1.00016
1444 1.00016
1444.5 1.00016
1445 1.00016
1445.5 1.00016
1446 1.00016
1446.5 1.00016
1447 1.00016
1447.5 1.00016
1448 1.00016
1448.5 1.00016
1449 1.00016
1449.5 1.00016
1450 1.00016
1450.5 1.00016
1451 1.00016
1451.5 1.00016
1452 1.00016
1452.5 1.00016
1453 1.00016
1453.5 1.00016
1454 1.00016
1454.5 1.00016
1455 1.00016
1455.5 1.00016
1456 1.00016
1456.5 1.00016
1457 1.00016
1457.5 1.00016
1458 1.00016
1458.5 1.00016
1459 1.00016
1459.5 1.00016
1460 1.00016
1460.5 1.00016
1461 1.00016
1461.5 1.00016
1462 1.00016
1462.5 1.00016
1463 1.00016
1463.5 1.00016
1464 1.00016
1464.5 1.00015
1465 1.00015
1465.5 1.00015
1466 1.00015
1466.5 1.00015
1467 1.00015
1467.5 1.00015
1468 1.00015
1468.5 1.00015
1469 1.00015
1469.5 1.00015
1470 1.00015
1470.5 1.00015
1471 1.00015
1471.5 1.00015
1472 1.00015
1472.5 1.00015
1473 1.00015
1473.5 1.00015
1474 1.00015
1474.5 1.00015
1475 1.00015
1475.5 1.00015
1476 1.00015
1476.5 1.00015
1477 1.00015
1477.5 1.00015
1478 1.00015
1478.5 1.00015
1479 1.00015
1479.5 1.00015
1480 1.00015
1480.5 1.00015
1481 1.00015
1481.5 1.00015
1482 1.00015
1482.5 1.00015
1483 1.00015
1483.5 1.00015
1484 1.00015
1484.5 1.00015
1485 1.00015
1485.5 1.00015
1486 1.00015
1486.5 1.00015
1487 1.00015
1487.5 1.00015
1488 1.00015
1488.5 1.00015
1489 1.00014
1489.5 1.00014
1490 1.00014
1490.5 1.00014
1491 1.00014
1491.5 1.00014
1492 1.00014
1492.5 1.00014
1493 1.00014
1493.5 1.00014
1494 1.00014
1494.5 1.00014
1495 1.00014
1495.5 1.00014
1496 1.00014
1496.5 1.00014
1497 1.00014
1497.5 1.00014
1498 1.00014
1498.5 1.00014
1499 1.00014
1499.5 1.00014
1500 1.00014
1500.5 1.00014
1501 1.00014
1501.5 1.00014
1502 1.00014
1502.5 1.00014
1503 1.00014
1503.5 1.00014
1504 1.00014
1504.5 1.00014
1505 1.00014
1505.5 1.00014
1506 1.00014
1506.5 1.00014
1507 1.00014
1507.5 1.00014
1508 1.00014
1508.5 1.00014
1509 1.00014
1509.5 1.00014
1510 1.00014
1510.5 1.00014
1511 1.00014
1511.5 1.00014
1512 1.00014
1512.5 1.00014
1513 1.00014
1513.5 1.00014
1514 1.00014
1514.5 1.00014
1515 1.00014
1515.5 1.00013
1516 1.00013
1516.5 1.00013
1517 1.00013
1517.5 1.00013
1518 1.00013
1518.5 1.00013
1519 1.00013
1519.5 1.00013
1520 1.00013
1520.5 1.00013
1521 1.00013
1521.5 1.00013
1522 1.00013
1522.5 1.00013
1523 1.00013
1523.5 1.00013
1524 1.00013
1524.5 1.00013
1525 1.00013
1525.5 1.00013
1526 1.00013
1526.5 1.00013
1527 1.00013
1527.5 1.00013
1528 1.00013
1528.5 1.00013
1529 1.00013
1529.5 1.00013
1530 1.00013
1530.5 1.00013
1531 1.00013
1531.5 1.00013
1532 1.00013
1532.5 1.00013
1533 1.00013
1533.5 1.00013
1534 1.00013
1534.5 1.00013
1535 1.00013
1535.5 1.00013
1536 1.00013
1536.5 1.00013
1537 1.00013
1537.5 1.00013
1538 1.00013
1538.5 1.00013
1539 1.00013
1539.5 1.00013
1540 1.00013
1540.5 1.00013
1541 1.00013
1541.5 1.00013
1542 1.00013
1542.5 1.00013
1543 1.00013
1543.5 1.00013
1544 1.00013
1544.5 1.00012
1545 1.00012
1545.5 1.00012
1546 1.00012
1546.5 1.00012
1547 1.00012
1547.5 1.00012
1548 1.00012
1548.5 1.00012
1549 1.00012
1549.5 1.00012
1550 1.00012
1550.5 1.00012
1551 1.00012
1551.5 1.00012
1552 1.00012
1552.5 1.00012
1553 1.00012
1553.5 1.00012
1554 1.00012
1554.5 1.00012
1555 1.00012
1555.5 1.00012
1556 1.00012
1556.5 1.00012
1557 1.00012
1557.5 1.00012
1558 1.00012
1558.5 1.00012
1559 1.00012
1559.5 1.00012
1560 1.00012
1560.5 1.00012
1561 1.00012
1561.5 1.00012
1562 1.00012
1562.5 1.00012
1563 1.00012
1563.5 1.00012
1564 1.00012
1564.5 1.00012
1565 1.00012
1565.5 1.00012
1566 1.00012
1566.5 1.00012
1567 1.00012
1567.5 1.00012
1568 1.00012
1568.5 1.00012
1569 1.00012
1569.5 1.00012
1570 1.00012
1570.5 1.00012
1571 1.00012
1571.5 1.00012
1572 1.00012
1572.5 1.00012
1573 1.00012
1573.5 1.00012
1574 1.00012
1574.5 1.00012
1575 1.00012
1575.5 1.00012
1576 1.00012
1576.5 1.00012
1577 1.00011
1577.5 1.00011
1578 1.00011
1578.5 1.00011
1579 1.00011
1579.5 1.00011
1580 1.00011
1580.5 1.00011
1581 1.00011
1581.5 1.00011
1582 1.00011
1582.5 1.00011
1583 1.00011
1583.5 1.00011
1584 1.00011
1584.5 1.00011
1585 1.00011
1585.5 1.00011
1586 1.00011
1586.5 1.00011
1587 1.00011
1587.5 1.00011
1588 1.00011
1588.5 1.00011
1589 1.00011
1589.5 1.00011
1590 1.00011
1590.5 1.00011
1591 1.00011
1591.5 1.00011
1592 1.00011
1592.5 1.00011
1593 1.00011
1593.5 1.00011
1594 1.00011
1594.5 1.00011
1595 1.00011
1595.5 1.00011
1596 1.00011
1596.5 1.00011
1597 1.00011
1597.5 1.00011
1598 1.00011
1598.5 1.00011
1599 1.00011
1599.5 1.00011
1600 1.00011
1600.5 1.00011
1601 1.00011
1601.5 1.00011
1602 1.00011
1602.5 1.00011
1603 1.00011
1603.5 1.00011
1604 1.00011
1604.5 1.00011
1605 1.00011
1605.5 1.00011
1606 1.00011
1606.5 1.00011
1607 1.00011
1607.5 1.00011
1608 1.00011
1608.5 1.00011
1609 1.00011
1609.5 1.00011
1610 1.00011
1610.5 1.00011
1611 1.00011
1611.5 1.00011
1612 1.00011
1612.5 1.0001
1613 1.0001
1613.5 1.0001
1614 1.0001
1614.5 1.0001
1615 1.0001
1615.5 1.0001
1616 1.0001
1616.5 1.0001
1617 1.0001
1617.5 1.0001
1618 1.0001
1618.5 1.0001
1619 1.0001
1619.5 1.0001
1620 1.0001
1620.5 1.0001
1621 1.0001
1621.5 1.0001
1622 1.0001
1622.5 1.0001
1623 1.0001
1623.5 1.0001
1624 1.0001
1624.5 1.0001
1625 1.0001
1625.5 1.0001
1626 1.0001
1626.5 1.0001
1627 1.0001
1627.5 1.0001
1628 1.0001
1628.5 1.0001
1629 1.0001
1629.5 1.0001
1630 1.0001
1630.5 1.0001
1631 1.0001
1631.5 1.0001
1632 1.0001
1632.5 1.0001
1633 1.0001
1633.5 1.0001
1634 1.0001
1634.5 1.0001
1635 1.0001
1635.5 1.0001
1636 1.0001
1636.5 1.0001
1637 1.0001
1637.5 1.0001
1638 1.0001
1638.5 1.0001
1639 1.0001
1639.5 1.0001
1640 1.0001
1640.5 1.0001
1641 1.0001
1641.5 1.0001
1642 1.0001
1642.5 1.0001
1643 1.0001
1643.5 1.0001
1644 1.0001
1644.5 1.0001
1645 1.0001
1645.5 1.0001
1646 1.0001
1646.5 1.0001
1647 1.0001
1647.5 1.0001
1648 1.0001
1648.5 1.0001
1649 1.0001
1649.5 1.0001
1650 1.0001
1650.5 1.0001
1651 1.0001
1651.5 1.0001
1652 1.0001
1652.5 1.0001
1653 1.00009
1653.5 1.00009
1654 1.00009
1654.5 1.00009
1655 1.00009
1655.5 1.00009
1656 1.00009
1656.5 1.00009
1657 1.00009
1657.5 1.00009
1658 1.00009
1658.5 1.00009
1659 1.00009
1659.5 1.00009
1660 1.00009
1660.5 1.00009
1661 1.00009
1661.5 1.00009
1662 1.00009
1662.5 1.00009
1663 1.00009
1663.5 1.00009
1664 1.00009
1664.5 1.00009
1665 1.00009
1665.5 1.00009
1666 1.00009
1666.5 1.00009
1667 1.00009
1667.5 1.00009
1668 1.00009
1668.5 1.00009
1669 1.00009
1669.5 1.00009
1670 1.00009
1670.5 1.00009
1671 1.00009
1671.5 1.00009
1672 1.00009
1672.5 1.00009
1673 1.00009
1673.5 1.00009
1674 1.00009
1674.5 1.00009
1675 1.00009
1675.5 1.00009
1676 1.00009
1676.5 1.00009
1677 1.00009
1677.5 1.00009
1678 1.00009
1678.5 1.00009
1679 1.00009
1679.5 1.00009
1680 1.00009
1680.5 1.00009
1681 1.00009
1681.5 1.00009
1682 1.00009
1682.5 1.00009
1683 1.00009
1683.5 1.00009
1684 1.00009
1684.5 1.00009
1685 1.00009
1685.5 1.00009
1686 1.00009
1686.5 1.00009
1687 1.00009
1687.5 1.00009
1688 1.00009
1688.5 1.00009
1689 1.00009
1689.5 1.00009
1690 1.00009
1690.5 1.00009
1691 1.00009
1691.5 1.00009
1692 1.00009
1692.5 1.00009
1693 1.00009
1693.5 1.00009
1694 1.00009
1694.5 1.00009
1695 1.00009
1695.5 1.00009
1696 1.00009
1696.5 1.00009
1697 1.00009
1697.5 1.00009
1698 1.00009
1698.5 1.00009
1699 1.00009
1699.5 1.00008
1700 1.00008
1700.5 1.00008
1701 1.00008
1701.5 1.00008
1702 1.00008
1702.5 1.00008
1703 1.00008
1703.5 1.00008
1704 1.00008
1704.5 1.00008
1705 1.00008
1705.5 1.00008
1706 1.00008
1706.5 1.00008
1707 1.00008
1707.5 1.00008
1708 1.00008
1708.5 1.00008
1709 1.00008
1709.5 1.00008
1710 1.00008
1710.5 1.00008
1711 1.00008
1711.5 1.00008
1712 1.00008
1712.5 1.00008
1713 1.00008
1713.5 1.00008
1714 1.00008
1714.5 1.00008
1715 1.00008
1715.5 1.00008
1716 1.00008
1716.5 1.00008
1717 1.00008
1717.5 1.00008
1718 1.00008
1718.5 1.00008
1719 1.00008
1719.5 1.00008
1720 1.00008
1720.5 1.00008
1721 1.00008
1721.5 1.00008
1722 1.00008
1722.5 1.00008
1723 1.00008
1723.5 1.00008
1724 1.00008
1724.5 1.00008
1725 1.00008
1725.5 1.00008
1726 1.00008
1726.5 1.00008
1727 1.00008
1727.5 1.00008
1728 1.00008
1728.5 1.00008
1729 1.00008
1729.5 1.00008
1730 1.00008
1730.5 1.00008
1731 1.00008
1731.5 1.00008
1732 1.00008
1732.5 1.00008
1733 1.00008
1733.5 1.00008
1734 1.00008
1734.5 1.00008
1735 1.00008
1735.5 1.00008
1736 1.00008
1736.5 1.00008
1737 1.00008
1737.5 1.00008
1738 1.00008
1738.5 1.00008
1739 1.00008
1739.5 1.00008
1740 1.00008
1740.5 1.00008
1741 1.00008
1741.5 1.00008
1742 1.00008
1742.5 1.00008
1743 1.00008
1743.5 1.00008
1744 1.00008
1744.5 1.00008
1745 1.00008
1745.5 1.00008
1746 1.00008
1746.5 1.00008
1747 1.00008
1747.5 1.00008
1748 1.00008
1748.5 1.00008
1749 1.00008
1749.5 1.00008
1750 1.00008
1750.5 1.00008
1751 1.00008
1751.5 1.00008
1752 1.00008
1752.5 1.00008
1753 1.00007
1753.5 1.00007
1754 1.00007
1754.5 1.00007
1755 1.00007
1755.5 1.00007
1756 1.00007
1756.5 1.00007
1757 1.00007
1757.5 1.00007
1758 1.00007
1758.5 1.00007
1759 1.00007
1759.5 1.00007
1760 1.00007
1760.5 1.00007
1761 1.00007
1761.5 1.00007
1762 1.00007
1762.5 1.00007
1763 1.00007
1763.5 1.00007
1764 1.00007
1764.5 1.00007
1765 1.00007
1765.5 1.00007
1766 1.00007
1766.5 1.00007
1767 1.00007
1767.5 1.00007
1768 1.00007
1768.5 1.00007
1769 1.00007
1769.5 1.00007
1770 1.00007
1770.5 1.00007
1771 1.00007
1771.5 1.00007
1772 1.00007
1772.5 1.00007
1773 1.00007
1773.5 1.00007
1774 1.00007
1774.5 1.00007
1775 1.00007
1775.5 1.00007
1776 1.00007
1776.5 1.00007
1777 1.00007
1777.5 1.00007
1778 1.00007
1778.5 1.00007
1779 1.00007
1779.5 1.00007
1780 1.00007
1780.5 1.00007
1781 1.00007
1781.5 1.00007
1782 1.00007
1782.5 1.00007
1783 1.00007
1783.5 1.00007
1784 1.00007
1784.5 1.00007
1785 1.00007
1785.5 1.00007
1786 1.00007
1786.5 1.00007
1787 1.00007
1787.5 1.00007
1788 1.00007
1788.5 1.00007
1789 1.00007
1789.5 1.00007
1790 1.00007
1790.5 1.00007
1791 1.00007
1791.5 1.00007
1792 1.00007
1792.5 1.00007
1793 1.00007
1793.5 1.00007
1794 1.00007
1794.5 1.00007
1795 1.00007
1795.5 1.00007
1796 1.00007
1796.5 1.00007
1797 1.00007
1797.5 1.00007
1798 1.00007
1798.5 1.00007
1799 1.00007
1799.5 1.00007
1800 1.00007
1800.5 1.00007
1801 1.00007
1801.5 1.00007
1802 1.00007
1802.5 1.00007
1803 1.00007
1803.5 1.00007
1804 1.00007
1804.5 1.00007
1805 1.00007
1805.5 1.00007
1806 1.00007
1806.5 1.00007
1807 1.00007
1807.5 1.00007
1808 1.00007
1808.5 1.00007
1809 1.00007
1809.5 1.00007
1810 1.00007
1810.5 1.00007
1811 1.00007
1811.5 1.00007
1812 1.00007
1812.5 1.00007
1813 1.00007
1813.5 1.00007
1814 1.00007
1814.5 1.00007
1815 1.00007
1815.5 1.00007
1816 1.00007
1816.5 1.00006
1817 1.00006
1817.5 1.00006
1818 1.00006
1818.5 1.00006
1819 1.00006
1819.5 1.00006
1820 1.00006
1820.5 1.00006
1821 1.00006
1821.5 1.00006
1822 1.00006
1822.5 1.00006
1823 1.00006
1823.5 1.00006
1824 1.00006
1824.5 1.00006
1825 1.00006
1825.5 1.00006
1826 1.00006
1826.5 1.00006
1827 1.00006
1827.5 1.00006
1828 1.00006
1828.5 1.00006
1829 1.00006
1829.5 1.00006
1830 1.00006
1830.5 1.00006
1831 1.00006
1831.5 1.00006
1832 1.00006
1832.5 1.00006
1833 1.00006
1833.5 1.00006
1834 1.00006
1834.5 1.00006
1835 1.00006
1835.5 1.00006
1836 1.00006
1836.5 1.00006
1837 1.00006
1837.5 1.00006
1838 1.00006
1838.5 1.00006
1839 1.00006
1839.5 1.00006
1840 1.00006
1840.5 1.00006
1841 1.00006
1841.5 1.00006
1842 1.00006
1842.5 1.00006
1843 1.00006
1843.5 1.00006
1844 1.00006
1844.5 1.00006
1845 1.00006
1845.5 1.00006
1846 1.00006
1846.5 1.00006
1847 1.00006
1847.5 1.00006
1848 1.00006
1848.5 1.00006
1849 1.00006
1849.5 1.00006
1850 1.00006
1850.5 1.00006
1851 1.00006
1851.5 1.00006
1852 1.00006
1852.5 1.00006
1853 1.00006
1853.5 1.00006
1854 1.00006
1854.5 1.00006
1855 1.00006
1855.5 1.00006
1856 1.00006
1856.5 1.00006
1857 1.00006
1857.5 1.00006
1858 1.00006
1858.5 1.00006
1859 1.00006
1859.5 1.00006
1860 1.00006
1860.5 1.00006
1861 1.00006
1861.5 1.00006
1862 1.00006
1862.5 1.00006
1863 1.00006
1863.5 1.00006
1864 1.00006
1864.5 1.00006
1865 1.00006
1865.5 1.00006
1866 1.00006
1866.5 1.00006
1867 1.00006
1867.5 1.00006
1868 1.00006
1868.5 1.00006
1869 1.00006
1869.5 1.00006
1870 1.00006
1870.5 1.00006
1871 1.00006
1871.5 1.00006
1872 1.00006
1872.5 1.00006
1873 1.00006
1873.5 1.00006
1874 1.00006
1874.5 1.00006
1875 1.00006
1875.5 1.00006
1876 1.00006
1876.5 1.00006
1877 1.00006
1877.5 1.00006
1878 1.00006
1878.5 1.00006
1879 1.00006
1879.5 1.00006
1880 1.00006
1880.5 1.00006
1881 1.00006
1881.5 1.00006
1882 1.00006
1882.5 1.00006
1883 1.00006
1883.5 1.00006
1884 1.00006
1884.5 1.00006
1885 1.00006
1885.5 1.00006
1886 1.00006
1886.5 1.00006
1887 1.00006
1887.5 1.00006
1888 1.00006
1888.5 1.00006
1889 1.00006
1889.5 1.00006
1890 1.00006
1890.5 1.00006
1891 1.00006
1891.5 1.00006
1892 1.00006
1892.5 1.00006
1893 1.00005
1893.5 1.00005
1894 1.00005
1894.5 1.00005
1895 1.00005
1895.5 1.00005
1896 1.00005
1896.5 1.00005
1897 1.00005
1897.5 1.00005
1898 1.00005
1898.5 1.00005
1899 1.00005
1899.5 1.00005
1900 1.00005
1900.5 1.00005
1901 1.00005
1901.5 1.00005
1902 1.00005
1902.5 1.00005
1903 1.00005
1903.5 1.00005
1904 1.00005
1904.5 1.00005
1905 1.00005
1905.5 1.00005
1906 1.00005
1906.5 1.00005
1907 1.00005
1907.5 1.00005
1908 1.00005
1908.5 1.00005
1909 1.00005
1909.5 1.00005
1910 1.00005
1910.5 1.00005
1911 1.00005
1911.5 1.00005
1912 1.00005
1912.5 1.00005
1913 1.00005
1913.5 1.00005
1914 1.00005
1914.5 1.00005
1915 1.00005
1915.5 1.00005
1916 1.00005
1916.5 1.00005
1917 1.00005
1917.5 1.00005
1918 1.00005
1918.5 1.00005
1919 1.00005
1919.5 1.00005
1920 1.00005
1920.5 1.00005
1921 1.00005
1921.5 1.00005
1922 1.00005
1922.5 1.00005
1923 1.00005
1923.5 1.00005
1924 1.00005
1924.5 1.00005
1925 1.00005
1925.5 1.00005
1926 1.00005
1926.5 1.00005
1927 1.00005
1927.5 1.00005
1928 1.00005
1928.5 1.00005
1929 1.00005
1929.5 1.00005
1930 1.00005
1930.5 1.00005
1931 1.00005
1931.5 1.00005
1932 1.00005
1932.5 1.00005
1933 1.00005
1933.5 1.00005
1934 1.00005
1934.5 1.00005
1935 1.00005
1935.5 1.00005
1936 1.00005
1936.5 1.00005
1937 1.00005
1937.5 1.00005
1938 1.00005
1938.5 1.00005
1939 1.00005
1939.5 1.00005
1940 1.00005
1940.5 1.00005
1941 1.00005
1941.5 1.00005
1942 1.00005
1942.5 1.00005
1943 1.00005
1943.5 1.00005
1944 1.00005
1944.5 1.00005
1945 1.00005
1945.5 1.00005
1946 1.00005
1946.5 1.00005
1947 1.00005
1947.5 1.00005
1948 1.00005
1948.5 1.00005
1949 1.00005
1949.5 1.00005
1950 1.00005
1950.5 1.00005
1951 1.00005
1951.5 1.00005
1952 1.00005
1952.5 1.00005
1953 1.00005
1953.5 1.00005
1954 1.00005
1954.5 1.00005
1955 1.00005
1955.5 1.00005
1956 1.00005
1956.5 1.00005
1957 1.00005
1957.5 1.00005
1958 1.00005
1958.5 1.00005
1959 1.00005
1959.5 1.00005
1960 1.00005
1960.5 1.00005
1961 1.00005
1961.5 1.00005
1962 1.00005
1962.5 1.00005
1963 1.00005
1963.5 1.00005
1964 1.00005
1964.5 1.00005
1965 1.00005
1965.5 1.00005
1966 1.00005
1966.5 1.00005
1967 1.00005
1967.5 1.00005
1968 1.00005
1968.5 1.00005
1969 1.00005
1969.5 1.00005
1970 1.00005
1970.5 1.00005
1971 1.00005
1971.5 1.00005
1972 1.00005
1972.5 1.00005
1973 1.00005
1973.5 1.00005
1974 1.00005
1974.5 1.00005
1975 1.00005
1975.5 1.00005
1976 1.00005
1976.5 1.00005
1977 1.00005
1977.5 1.00005
1978 1.00005
1978.5 1.00005
1979 1.00005
1979.5 1.00005
1980 1.00005
1980.5 1.00005
1981 1.00005
1981.5 1.00005
1982 1.00005
1982.5 1.00005
1983 1.00005
1983.5 1.00005
1984 1.00005
1984.5 1.00005
1985 1.00005
1985.5 1.00005
1986 1.00005
1986.5 1.00005
1987 1.00005
1987.5 1.00005
1988 1.00005
1988.5 1.00005
1989 1.00005
1989.5 1.00005
1990 1.00004
1990.5 1.00004
1991 1.00004
1991.5 1.00004
1992 1.00004
1992.5 1.00004
1993 1.00004
1993.5 1.00004
1994 1.00004
1994.5 1.00004
1995 1.00004
1995.5 1.00004
1996 1.00004
1996.5 1.00004
1997 1.00004
1997.5 1.00004
1998 1.00004
1998.5 1.00004
1999 1.00004
1999.5 1.00004
