### FSI tabel with Julich A Potential Triplet (2-Gauss potential) #####
# Weight # krel [MeV] 
0.5 1.70742
1 1.74979
1.5 2.07945
2 2.01231
2.5 1.84228
3 1.78909
3.5 1.8242
4 1.87446
4.5 1.90213
5 1.90292
5.5 1.88818
6 1.87076
6.5 1.85844
7 1.8534
7.5 1.85422
8 1.85814
8.5 1.86254
9 1.86571
9.5 1.86693
10 1.86632
10.5 1.86439
11 1.86178
11.5 1.85904
12 1.85654
12.5 1.85444
13 1.85278
13.5 1.85148
14 1.8504
14.5 1.84942
15 1.84842
15.5 1.84732
16 1.84606
16.5 1.84464
17 1.84306
17.5 1.84135
18 1.83953
18.5 1.83764
19 1.8357
19.5 1.83373
20 1.83174
20.5 1.82974
21 1.82773
21.5 1.82571
22 1.82367
22.5 1.8216
23 1.81951
23.5 1.81738
24 1.81521
24.5 1.813
25 1.81076
25.5 1.80846
26 1.80613
26.5 1.80376
27 1.80135
27.5 1.7989
28 1.79642
28.5 1.79391
29 1.79137
29.5 1.7888
30 1.7862
30.5 1.78358
31 1.78093
31.5 1.77825
32 1.77554
32.5 1.77282
33 1.77006
33.5 1.76729
34 1.76448
34.5 1.76166
35 1.75881
35.5 1.75594
36 1.75304
36.5 1.75013
37 1.74719
37.5 1.74423
38 1.74125
38.5 1.73826
39 1.73524
39.5 1.73221
40 1.72915
40.5 1.72609
41 1.723
41.5 1.7199
42 1.71679
42.5 1.71366
43 1.71052
43.5 1.70736
44 1.7042
44.5 1.70102
45 1.69782
45.5 1.69462
46 1.69141
46.5 1.68819
47 1.68495
47.5 1.68171
48 1.67846
48.5 1.67521
49 1.67194
49.5 1.66867
50 1.66539
50.5 1.66211
51 1.65882
51.5 1.65552
52 1.65222
52.5 1.64892
53 1.64561
53.5 1.6423
54 1.63898
54.5 1.63567
55 1.63235
55.5 1.62903
56 1.62571
56.5 1.62239
57 1.61907
57.5 1.61575
58 1.61243
58.5 1.60911
59 1.60579
59.5 1.60247
60 1.59916
60.5 1.59584
61 1.59253
61.5 1.58923
62 1.58592
62.5 1.58262
63 1.57933
63.5 1.57604
64 1.57275
64.5 1.56947
65 1.56619
65.5 1.56292
66 1.55965
66.5 1.55639
67 1.55314
67.5 1.5499
68 1.54666
68.5 1.54342
69 1.5402
69.5 1.53698
70 1.53377
70.5 1.53057
71 1.52738
71.5 1.52419
72 1.52101
72.5 1.51785
73 1.51469
73.5 1.51154
74 1.5084
74.5 1.50527
75 1.50215
75.5 1.49904
76 1.49594
76.5 1.49286
77 1.48978
77.5 1.48671
78 1.48365
78.5 1.48061
79 1.47758
79.5 1.47455
80 1.47154
80.5 1.46854
81 1.46555
81.5 1.46258
82 1.45961
82.5 1.45666
83 1.45372
83.5 1.45079
84 1.44788
84.5 1.44497
85 1.44208
85.5 1.43921
86 1.43634
86.5 1.43349
87 1.43065
87.5 1.42783
88 1.42501
88.5 1.42221
89 1.41943
89.5 1.41665
90 1.41389
90.5 1.41115
91 1.40841
91.5 1.40569
92 1.40299
92.5 1.40029
93 1.39761
93.5 1.39495
94 1.3923
94.5 1.38966
95 1.38704
95.5 1.38442
96 1.38183
96.5 1.37925
97 1.37668
97.5 1.37412
98 1.37158
98.5 1.36905
99 1.36654
99.5 1.36404
100 1.36155
100.5 1.35908
101 1.35662
101.5 1.35418
102 1.35175
102.5 1.34933
103 1.34693
103.5 1.34454
104 1.34217
104.5 1.33981
105 1.33746
105.5 1.33513
106 1.33281
106.5 1.3305
107 1.32821
107.5 1.32594
108 1.32367
108.5 1.32142
109 1.31919
109.5 1.31696
110 1.31475
110.5 1.31256
111 1.31038
111.5 1.30821
112 1.30605
112.5 1.30391
113 1.30179
113.5 1.29967
114 1.29757
114.5 1.29548
115 1.29341
115.5 1.29135
116 1.2893
116.5 1.28727
117 1.28525
117.5 1.28324
118 1.28125
118.5 1.27926
119 1.2773
119.5 1.27534
120 1.2734
120.5 1.27147
121 1.26955
121.5 1.26765
122 1.26576
122.5 1.26388
123 1.26201
123.5 1.26016
124 1.25832
124.5 1.25649
125 1.25467
125.5 1.25287
126 1.25108
126.5 1.2493
127 1.24753
127.5 1.24578
128 1.24403
128.5 1.2423
129 1.24058
129.5 1.23888
130 1.23718
130.5 1.2355
131 1.23383
131.5 1.23217
132 1.23052
132.5 1.22889
133 1.22726
133.5 1.22565
134 1.22405
134.5 1.22246
135 1.22088
135.5 1.21931
136 1.21775
136.5 1.21621
137 1.21468
137.5 1.21315
138 1.21164
138.5 1.21014
139 1.20865
139.5 1.20717
140 1.2057
140.5 1.20424
141 1.2028
141.5 1.20136
142 1.19993
142.5 1.19852
143 1.19711
143.5 1.19572
144 1.19433
144.5 1.19296
145 1.19159
145.5 1.19024
146 1.18889
146.5 1.18756
147 1.18623
147.5 1.18492
148 1.18361
148.5 1.18232
149 1.18103
149.5 1.17976
150 1.17849
150.5 1.17724
151 1.17599
151.5 1.17475
152 1.17352
152.5 1.1723
153 1.17109
153.5 1.16989
154 1.1687
154.5 1.16752
155 1.16634
155.5 1.16518
156 1.16402
156.5 1.16288
157 1.16174
157.5 1.16061
158 1.15949
158.5 1.15838
159 1.15727
159.5 1.15618
160 1.15509
160.5 1.15401
161 1.15294
161.5 1.15188
162 1.15083
162.5 1.14978
163 1.14874
163.5 1.14771
164 1.14669
164.5 1.14568
165 1.14467
165.5 1.14368
166 1.14269
166.5 1.1417
167 1.14073
167.5 1.13976
168 1.1388
168.5 1.13785
169 1.13691
169.5 1.13597
170 1.13504
170.5 1.13412
171 1.1332
171.5 1.13229
172 1.13139
172.5 1.1305
173 1.12961
173.5 1.12873
174 1.12786
174.5 1.127
175 1.12614
175.5 1.12529
176 1.12444
176.5 1.1236
177 1.12277
177.5 1.12195
178 1.12113
178.5 1.12032
179 1.11951
179.5 1.11871
180 1.11792
180.5 1.11713
181 1.11635
181.5 1.11558
182 1.11481
182.5 1.11405
183 1.11329
183.5 1.11254
184 1.1118
184.5 1.11106
185 1.11033
185.5 1.10961
186 1.10889
186.5 1.10817
187 1.10747
187.5 1.10676
188 1.10607
188.5 1.10538
189 1.10469
189.5 1.10401
190 1.10334
190.5 1.10267
191 1.102
191.5 1.10135
192 1.10069
192.5 1.10005
193 1.0994
193.5 1.09877
194 1.09813
194.5 1.09751
195 1.09689
195.5 1.09627
196 1.09566
196.5 1.09505
197 1.09445
197.5 1.09385
198 1.09326
198.5 1.09267
199 1.09209
199.5 1.09151
200 1.09094
200.5 1.09037
201 1.08981
201.5 1.08925
202 1.0887
202.5 1.08815
203 1.0876
203.5 1.08706
204 1.08653
204.5 1.08599
205 1.08547
205.5 1.08494
206 1.08442
206.5 1.08391
207 1.0834
207.5 1.08289
208 1.08239
208.5 1.08189
209 1.0814
209.5 1.08091
210 1.08042
210.5 1.07994
211 1.07946
211.5 1.07899
212 1.07852
212.5 1.07805
213 1.07759
213.5 1.07713
214 1.07668
214.5 1.07623
215 1.07578
215.5 1.07534
216 1.0749
216.5 1.07446
217 1.07403
217.5 1.0736
218 1.07317
218.5 1.07275
219 1.07233
219.5 1.07191
220 1.0715
220.5 1.07109
221 1.07069
221.5 1.07029
222 1.06989
222.5 1.06949
223 1.0691
223.5 1.06871
224 1.06833
224.5 1.06794
225 1.06756
225.5 1.06719
226 1.06682
226.5 1.06645
227 1.06608
227.5 1.06571
228 1.06535
228.5 1.065
229 1.06464
229.5 1.06429
230 1.06394
230.5 1.06359
231 1.06325
231.5 1.06291
232 1.06257
232.5 1.06223
233 1.0619
233.5 1.06157
234 1.06124
234.5 1.06092
235 1.0606
235.5 1.06028
236 1.05996
236.5 1.05965
237 1.05934
237.5 1.05903
238 1.05872
238.5 1.05842
239 1.05812
239.5 1.05782
240 1.05752
240.5 1.05723
241 1.05693
241.5 1.05664
242 1.05636
242.5 1.05607
243 1.05579
243.5 1.05551
244 1.05523
244.5 1.05495
245 1.05468
245.5 1.05441
246 1.05414
246.5 1.05387
247 1.05361
247.5 1.05335
248 1.05308
248.5 1.05283
249 1.05257
249.5 1.05232
250 1.05206
250.5 1.05181
251 1.05156
251.5 1.05132
252 1.05107
252.5 1.05083
253 1.05059
253.5 1.05035
254 1.05011
254.5 1.04988
255 1.04964
255.5 1.04941
256 1.04918
256.5 1.04896
257 1.04873
257.5 1.04851
258 1.04828
258.5 1.04806
259 1.04784
259.5 1.04763
260 1.04741
260.5 1.0472
261 1.04698
261.5 1.04677
262 1.04656
262.5 1.04636
263 1.04615
263.5 1.04595
264 1.04574
264.5 1.04554
265 1.04534
265.5 1.04515
266 1.04495
266.5 1.04475
267 1.04456
267.5 1.04437
268 1.04418
268.5 1.04399
269 1.0438
269.5 1.04361
270 1.04343
270.5 1.04325
271 1.04306
271.5 1.04288
272 1.0427
272.5 1.04252
273 1.04235
273.5 1.04217
274 1.042
274.5 1.04182
275 1.04165
275.5 1.04148
276 1.04131
276.5 1.04115
277 1.04098
277.5 1.04081
278 1.04065
278.5 1.04049
279 1.04032
279.5 1.04016
280 1.04
280.5 1.03984
281 1.03969
281.5 1.03953
282 1.03938
282.5 1.03922
283 1.03907
283.5 1.03892
284 1.03877
284.5 1.03862
285 1.03847
285.5 1.03832
286 1.03817
286.5 1.03803
287 1.03788
287.5 1.03774
288 1.0376
288.5 1.03745
289 1.03731
289.5 1.03717
290 1.03704
290.5 1.0369
291 1.03676
291.5 1.03662
292 1.03649
292.5 1.03636
293 1.03622
293.5 1.03609
294 1.03596
294.5 1.03583
295 1.0357
295.5 1.03557
296 1.03544
296.5 1.03531
297 1.03519
297.5 1.03506
298 1.03494
298.5 1.03481
299 1.03469
299.5 1.03457
300 1.03445
300.5 1.03433
301 1.0342
301.5 1.03409
302 1.03397
302.5 1.03385
303 1.03373
303.5 1.03362
304 1.0335
304.5 1.03339
305 1.03327
305.5 1.03316
306 1.03304
306.5 1.03293
307 1.03282
307.5 1.03271
308 1.0326
308.5 1.03249
309 1.03238
309.5 1.03227
310 1.03217
310.5 1.03206
311 1.03195
311.5 1.03185
312 1.03174
312.5 1.03164
313 1.03153
313.5 1.03143
314 1.03133
314.5 1.03123
315 1.03112
315.5 1.03102
316 1.03092
316.5 1.03082
317 1.03072
317.5 1.03062
318 1.03053
318.5 1.03043
319 1.03033
319.5 1.03024
320 1.03014
320.5 1.03004
321 1.02995
321.5 1.02985
322 1.02976
322.5 1.02967
323 1.02957
323.5 1.02948
324 1.02939
324.5 1.0293
325 1.02921
325.5 1.02912
326 1.02903
326.5 1.02894
327 1.02885
327.5 1.02876
328 1.02867
328.5 1.02858
329 1.02849
329.5 1.02841
330 1.02832
330.5 1.02823
331 1.02815
331.5 1.02806
332 1.02798
332.5 1.02789
333 1.02781
333.5 1.02772
334 1.02764
334.5 1.02756
335 1.02748
335.5 1.02739
336 1.02731
336.5 1.02723
337 1.02715
337.5 1.02707
338 1.02699
338.5 1.02691
339 1.02683
339.5 1.02675
340 1.02667
340.5 1.02659
341 1.02651
341.5 1.02644
342 1.02636
342.5 1.02628
343 1.0262
343.5 1.02613
344 1.02605
344.5 1.02598
345 1.0259
345.5 1.02582
346 1.02575
346.5 1.02567
347 1.0256
347.5 1.02553
348 1.02545
348.5 1.02538
349 1.02531
349.5 1.02523
350 1.02516
350.5 1.02509
351 1.02502
351.5 1.02494
352 1.02487
352.5 1.0248
353 1.02473
353.5 1.02466
354 1.02459
354.5 1.02452
355 1.02445
355.5 1.02438
356 1.02431
356.5 1.02424
357 1.02417
357.5 1.0241
358 1.02404
358.5 1.02397
359 1.0239
359.5 1.02383
360 1.02377
360.5 1.0237
361 1.02363
361.5 1.02357
362 1.0235
362.5 1.02343
363 1.02337
363.5 1.0233
364 1.02324
364.5 1.02317
365 1.02311
365.5 1.02304
366 1.02298
366.5 1.02291
367 1.02285
367.5 1.02278
368 1.02272
368.5 1.02266
369 1.02259
369.5 1.02253
370 1.02247
370.5 1.02241
371 1.02234
371.5 1.02228
372 1.02222
372.5 1.02216
373 1.02209
373.5 1.02203
374 1.02197
374.5 1.02191
375 1.02185
375.5 1.02179
376 1.02173
376.5 1.02167
377 1.02161
377.5 1.02155
378 1.02149
378.5 1.02143
379 1.02137
379.5 1.02131
380 1.02125
380.5 1.02119
381 1.02113
381.5 1.02107
382 1.02102
382.5 1.02096
383 1.0209
383.5 1.02084
384 1.02078
384.5 1.02073
385 1.02067
385.5 1.02061
386 1.02056
386.5 1.0205
387 1.02044
387.5 1.02039
388 1.02033
388.5 1.02027
389 1.02022
389.5 1.02016
390 1.0201
390.5 1.02005
391 1.01999
391.5 1.01994
392 1.01988
392.5 1.01983
393 1.01977
393.5 1.01972
394 1.01966
394.5 1.01961
395 1.01956
395.5 1.0195
396 1.01945
396.5 1.01939
397 1.01934
397.5 1.01929
398 1.01923
398.5 1.01918
399 1.01913
399.5 1.01907
400 1.01902
400.5 1.01897
401 1.01891
401.5 1.01886
402 1.01881
402.5 1.01876
403 1.01871
403.5 1.01865
404 1.0186
404.5 1.01855
405 1.0185
405.5 1.01845
406 1.0184
406.5 1.01834
407 1.01829
407.5 1.01824
408 1.01819
408.5 1.01814
409 1.01809
409.5 1.01804
410 1.01799
410.5 1.01794
411 1.01789
411.5 1.01784
412 1.01779
412.5 1.01774
413 1.01769
413.5 1.01764
414 1.01759
414.5 1.01754
415 1.01749
415.5 1.01744
416 1.0174
416.5 1.01735
417 1.0173
417.5 1.01725
418 1.0172
418.5 1.01715
419 1.01711
419.5 1.01706
420 1.01701
420.5 1.01696
421 1.01691
421.5 1.01687
422 1.01682
422.5 1.01677
423 1.01673
423.5 1.01668
424 1.01663
424.5 1.01658
425 1.01654
425.5 1.01649
426 1.01644
426.5 1.0164
427 1.01635
427.5 1.01631
428 1.01626
428.5 1.01621
429 1.01617
429.5 1.01612
430 1.01608
430.5 1.01603
431 1.01599
431.5 1.01594
432 1.0159
432.5 1.01585
433 1.0158
433.5 1.01576
434 1.01572
434.5 1.01567
435 1.01563
435.5 1.01558
436 1.01554
436.5 1.01549
437 1.01545
437.5 1.01541
438 1.01536
438.5 1.01532
439 1.01527
439.5 1.01523
440 1.01519
440.5 1.01514
441 1.0151
441.5 1.01506
442 1.01501
442.5 1.01497
443 1.01493
443.5 1.01489
444 1.01484
444.5 1.0148
445 1.01476
445.5 1.01472
446 1.01467
446.5 1.01463
447 1.01459
447.5 1.01455
448 1.01451
448.5 1.01446
449 1.01442
449.5 1.01438
450 1.01434
450.5 1.0143
451 1.01426
451.5 1.01422
452 1.01417
452.5 1.01413
453 1.01409
453.5 1.01405
454 1.01401
454.5 1.01397
455 1.01393
455.5 1.01389
456 1.01385
456.5 1.01381
457 1.01377
457.5 1.01373
458 1.01369
458.5 1.01365
459 1.01361
459.5 1.01357
460 1.01353
460.5 1.01349
461 1.01345
461.5 1.01341
462 1.01338
462.5 1.01334
463 1.0133
463.5 1.01326
464 1.01322
464.5 1.01318
465 1.01314
465.5 1.0131
466 1.01307
466.5 1.01303
467 1.01299
467.5 1.01295
468 1.01291
468.5 1.01288
469 1.01284
469.5 1.0128
470 1.01276
470.5 1.01273
471 1.01269
471.5 1.01265
472 1.01261
472.5 1.01258
473 1.01254
473.5 1.0125
474 1.01247
474.5 1.01243
475 1.01239
475.5 1.01236
476 1.01232
476.5 1.01229
477 1.01225
477.5 1.01221
478 1.01218
478.5 1.01214
479 1.01211
479.5 1.01207
480 1.01203
480.5 1.012
481 1.01196
481.5 1.01193
482 1.01189
482.5 1.01186
483 1.01182
483.5 1.01179
484 1.01175
484.5 1.01172
485 1.01168
485.5 1.01165
486 1.01161
486.5 1.01158
487 1.01155
487.5 1.01151
488 1.01148
488.5 1.01144
489 1.01141
489.5 1.01137
490 1.01134
490.5 1.01131
491 1.01127
491.5 1.01124
492 1.01121
492.5 1.01117
493 1.01114
493.5 1.01111
494 1.01107
494.5 1.01104
495 1.01101
495.5 1.01098
496 1.01094
496.5 1.01091
497 1.01088
497.5 1.01085
498 1.01081
498.5 1.01078
499 1.01075
499.5 1.01072
500 1.01068
500.5 1.01065
501 1.01062
501.5 1.01059
502 1.01056
502.5 1.01053
503 1.01049
503.5 1.01046
504 1.01043
504.5 1.0104
505 1.01037
505.5 1.01034
506 1.01031
506.5 1.01028
507 1.01025
507.5 1.01022
508 1.01018
508.5 1.01015
509 1.01012
509.5 1.01009
510 1.01006
510.5 1.01003
511 1.01
511.5 1.00997
512 1.00994
512.5 1.00991
513 1.00988
513.5 1.00985
514 1.00982
514.5 1.00979
515 1.00977
515.5 1.00974
516 1.00971
516.5 1.00968
517 1.00965
517.5 1.00962
518 1.00959
518.5 1.00956
519 1.00953
519.5 1.0095
520 1.00948
520.5 1.00945
521 1.00942
521.5 1.00939
522 1.00936
522.5 1.00933
523 1.00931
523.5 1.00928
524 1.00925
524.5 1.00922
525 1.00919
525.5 1.00917
526 1.00914
526.5 1.00911
527 1.00908
527.5 1.00906
528 1.00903
528.5 1.009
529 1.00898
529.5 1.00895
530 1.00892
530.5 1.0089
531 1.00887
531.5 1.00884
532 1.00881
532.5 1.00879
533 1.00876
533.5 1.00874
534 1.00871
534.5 1.00868
535 1.00866
535.5 1.00863
536 1.0086
536.5 1.00858
537 1.00855
537.5 1.00853
538 1.0085
538.5 1.00848
539 1.00845
539.5 1.00842
540 1.0084
540.5 1.00837
541 1.00835
541.5 1.00832
542 1.0083
542.5 1.00827
543 1.00825
543.5 1.00822
544 1.0082
544.5 1.00817
545 1.00815
545.5 1.00813
546 1.0081
546.5 1.00808
547 1.00805
547.5 1.00803
548 1.008
548.5 1.00798
549 1.00796
549.5 1.00793
550 1.00791
550.5 1.00788
551 1.00786
551.5 1.00784
552 1.00781
552.5 1.00779
553 1.00777
553.5 1.00774
554 1.00772
554.5 1.0077
555 1.00767
555.5 1.00765
556 1.00763
556.5 1.0076
557 1.00758
557.5 1.00756
558 1.00754
558.5 1.00751
559 1.00749
559.5 1.00747
560 1.00745
560.5 1.00742
561 1.0074
561.5 1.00738
562 1.00736
562.5 1.00733
563 1.00731
563.5 1.00729
564 1.00727
564.5 1.00725
565 1.00722
565.5 1.0072
566 1.00718
566.5 1.00716
567 1.00714
567.5 1.00712
568 1.0071
568.5 1.00707
569 1.00705
569.5 1.00703
570 1.00701
570.5 1.00699
571 1.00697
571.5 1.00695
572 1.00693
572.5 1.00691
573 1.00689
573.5 1.00686
574 1.00684
574.5 1.00682
575 1.0068
575.5 1.00678
576 1.00676
576.5 1.00674
577 1.00672
577.5 1.0067
578 1.00668
578.5 1.00666
579 1.00664
579.5 1.00662
580 1.0066
580.5 1.00658
581 1.00656
581.5 1.00654
582 1.00652
582.5 1.0065
583 1.00649
583.5 1.00647
584 1.00645
584.5 1.00643
585 1.00641
585.5 1.00639
586 1.00637
586.5 1.00635
587 1.00633
587.5 1.00631
588 1.00629
588.5 1.00628
589 1.00626
589.5 1.00624
590 1.00622
590.5 1.0062
591 1.00618
591.5 1.00616
592 1.00615
592.5 1.00613
593 1.00611
593.5 1.00609
594 1.00607
594.5 1.00606
595 1.00604
595.5 1.00602
596 1.006
596.5 1.00598
597 1.00597
597.5 1.00595
598 1.00593
598.5 1.00591
599 1.0059
599.5 1.00588
600 1.00586
600.5 1.00584
601 1.00583
601.5 1.00581
602 1.00579
602.5 1.00577
603 1.00576
603.5 1.00574
604 1.00572
604.5 1.00571
605 1.00569
605.5 1.00567
606 1.00566
606.5 1.00564
607 1.00562
607.5 1.00561
608 1.00559
608.5 1.00557
609 1.00556
609.5 1.00554
610 1.00552
610.5 1.00551
611 1.00549
611.5 1.00548
612 1.00546
612.5 1.00544
613 1.00543
613.5 1.00541
614 1.0054
614.5 1.00538
615 1.00536
615.5 1.00535
616 1.00533
616.5 1.00532
617 1.0053
617.5 1.00529
618 1.00527
618.5 1.00526
619 1.00524
619.5 1.00522
620 1.00521
620.5 1.00519
621 1.00518
621.5 1.00516
622 1.00515
622.5 1.00513
623 1.00512
623.5 1.0051
624 1.00509
624.5 1.00507
625 1.00506
625.5 1.00504
626 1.00503
626.5 1.00502
627 1.005
627.5 1.00499
628 1.00497
628.5 1.00496
629 1.00494
629.5 1.00493
630 1.00491
630.5 1.0049
631 1.00489
631.5 1.00487
632 1.00486
632.5 1.00484
633 1.00483
633.5 1.00482
634 1.0048
634.5 1.00479
635 1.00477
635.5 1.00476
636 1.00475
636.5 1.00473
637 1.00472
637.5 1.0047
638 1.00469
638.5 1.00468
639 1.00466
639.5 1.00465
640 1.00464
640.5 1.00462
641 1.00461
641.5 1.0046
642 1.00458
642.5 1.00457
643 1.00456
643.5 1.00454
644 1.00453
644.5 1.00452
645 1.00451
645.5 1.00449
646 1.00448
646.5 1.00447
647 1.00445
647.5 1.00444
648 1.00443
648.5 1.00442
649 1.0044
649.5 1.00439
650 1.00438
650.5 1.00437
651 1.00435
651.5 1.00434
652 1.00433
652.5 1.00432
653 1.0043
653.5 1.00429
654 1.00428
654.5 1.00427
655 1.00426
655.5 1.00424
656 1.00423
656.5 1.00422
657 1.00421
657.5 1.0042
658 1.00418
658.5 1.00417
659 1.00416
659.5 1.00415
660 1.00414
660.5 1.00412
661 1.00411
661.5 1.0041
662 1.00409
662.5 1.00408
663 1.00407
663.5 1.00405
664 1.00404
664.5 1.00403
665 1.00402
665.5 1.00401
666 1.004
666.5 1.00399
667 1.00398
667.5 1.00396
668 1.00395
668.5 1.00394
669 1.00393
669.5 1.00392
670 1.00391
670.5 1.0039
671 1.00389
671.5 1.00388
672 1.00387
672.5 1.00385
673 1.00384
673.5 1.00383
674 1.00382
674.5 1.00381
675 1.0038
675.5 1.00379
676 1.00378
676.5 1.00377
677 1.00376
677.5 1.00375
678 1.00374
678.5 1.00373
679 1.00372
679.5 1.00371
680 1.0037
680.5 1.00369
681 1.00368
681.5 1.00367
682 1.00366
682.5 1.00365
683 1.00364
683.5 1.00362
684 1.00361
684.5 1.0036
685 1.00359
685.5 1.00359
686 1.00358
686.5 1.00357
687 1.00356
687.5 1.00355
688 1.00354
688.5 1.00353
689 1.00352
689.5 1.00351
690 1.0035
690.5 1.00349
691 1.00348
691.5 1.00347
692 1.00346
692.5 1.00345
693 1.00344
693.5 1.00343
694 1.00342
694.5 1.00341
695 1.0034
695.5 1.00339
696 1.00338
696.5 1.00337
697 1.00336
697.5 1.00336
698 1.00335
698.5 1.00334
699 1.00333
699.5 1.00332
700 1.00331
700.5 1.0033
701 1.00329
701.5 1.00328
702 1.00327
702.5 1.00327
703 1.00326
703.5 1.00325
704 1.00324
704.5 1.00323
705 1.00322
705.5 1.00321
706 1.0032
706.5 1.0032
707 1.00319
707.5 1.00318
708 1.00317
708.5 1.00316
709 1.00315
709.5 1.00314
710 1.00314
710.5 1.00313
711 1.00312
711.5 1.00311
712 1.0031
712.5 1.00309
713 1.00308
713.5 1.00308
714 1.00307
714.5 1.00306
715 1.00305
715.5 1.00304
716 1.00304
716.5 1.00303
717 1.00302
717.5 1.00301
718 1.003
718.5 1.00299
719 1.00299
719.5 1.00298
720 1.00297
720.5 1.00296
721 1.00296
721.5 1.00295
722 1.00294
722.5 1.00293
723 1.00292
723.5 1.00292
724 1.00291
724.5 1.0029
725 1.00289
725.5 1.00288
726 1.00288
726.5 1.00287
727 1.00286
727.5 1.00285
728 1.00285
728.5 1.00284
729 1.00283
729.5 1.00282
730 1.00282
730.5 1.00281
731 1.0028
731.5 1.00279
732 1.00279
732.5 1.00278
733 1.00277
733.5 1.00277
734 1.00276
734.5 1.00275
735 1.00274
735.5 1.00274
736 1.00273
736.5 1.00272
737 1.00271
737.5 1.00271
738 1.0027
738.5 1.00269
739 1.00269
739.5 1.00268
740 1.00267
740.5 1.00267
741 1.00266
741.5 1.00265
742 1.00264
742.5 1.00264
743 1.00263
743.5 1.00262
744 1.00262
744.5 1.00261
745 1.0026
745.5 1.0026
746 1.00259
746.5 1.00258
747 1.00258
747.5 1.00257
748 1.00256
748.5 1.00256
749 1.00255
749.5 1.00254
750 1.00254
750.5 1.00253
751 1.00252
751.5 1.00252
752 1.00251
752.5 1.0025
753 1.0025
753.5 1.00249
754 1.00248
754.5 1.00248
755 1.00247
755.5 1.00247
756 1.00246
756.5 1.00245
757 1.00245
757.5 1.00244
758 1.00243
758.5 1.00243
759 1.00242
759.5 1.00242
760 1.00241
760.5 1.0024
761 1.0024
761.5 1.00239
762 1.00238
762.5 1.00238
763 1.00237
763.5 1.00237
764 1.00236
764.5 1.00235
765 1.00235
765.5 1.00234
766 1.00234
766.5 1.00233
767 1.00232
767.5 1.00232
768 1.00231
768.5 1.00231
769 1.0023
769.5 1.00229
770 1.00229
770.5 1.00228
771 1.00228
771.5 1.00227
772 1.00227
772.5 1.00226
773 1.00225
773.5 1.00225
774 1.00224
774.5 1.00224
775 1.00223
775.5 1.00223
776 1.00222
776.5 1.00222
777 1.00221
777.5 1.0022
778 1.0022
778.5 1.00219
779 1.00219
779.5 1.00218
780 1.00218
780.5 1.00217
781 1.00217
781.5 1.00216
782 1.00215
782.5 1.00215
783 1.00214
783.5 1.00214
784 1.00213
784.5 1.00213
785 1.00212
785.5 1.00212
786 1.00211
786.5 1.00211
787 1.0021
787.5 1.0021
788 1.00209
788.5 1.00209
789 1.00208
789.5 1.00208
790 1.00207
790.5 1.00207
791 1.00206
791.5 1.00206
792 1.00205
792.5 1.00204
793 1.00204
793.5 1.00203
794 1.00203
794.5 1.00202
795 1.00202
795.5 1.00201
796 1.00201
796.5 1.002
797 1.002
797.5 1.002
798 1.00199
798.5 1.00199
799 1.00198
799.5 1.00198
800 1.00197
800.5 1.00197
801 1.00196
801.5 1.00196
802 1.00195
802.5 1.00195
803 1.00194
803.5 1.00194
804 1.00193
804.5 1.00193
805 1.00192
805.5 1.00192
806 1.00191
806.5 1.00191
807 1.0019
807.5 1.0019
808 1.0019
808.5 1.00189
809 1.00189
809.5 1.00188
810 1.00188
810.5 1.00187
811 1.00187
811.5 1.00186
812 1.00186
812.5 1.00185
813 1.00185
813.5 1.00185
814 1.00184
814.5 1.00184
815 1.00183
815.5 1.00183
816 1.00182
816.5 1.00182
817 1.00181
817.5 1.00181
818 1.00181
818.5 1.0018
819 1.0018
819.5 1.00179
820 1.00179
820.5 1.00178
821 1.00178
821.5 1.00178
822 1.00177
822.5 1.00177
823 1.00176
823.5 1.00176
824 1.00175
824.5 1.00175
825 1.00175
825.5 1.00174
826 1.00174
826.5 1.00173
827 1.00173
827.5 1.00173
828 1.00172
828.5 1.00172
829 1.00171
829.5 1.00171
830 1.0017
830.5 1.0017
831 1.0017
831.5 1.00169
832 1.00169
832.5 1.00168
833 1.00168
833.5 1.00168
834 1.00167
834.5 1.00167
835 1.00166
835.5 1.00166
836 1.00166
836.5 1.00165
837 1.00165
837.5 1.00165
838 1.00164
838.5 1.00164
839 1.00163
839.5 1.00163
840 1.00163
840.5 1.00162
841 1.00162
841.5 1.00161
842 1.00161
842.5 1.00161
843 1.0016
843.5 1.0016
844 1.0016
844.5 1.00159
845 1.00159
845.5 1.00158
846 1.00158
846.5 1.00158
847 1.00157
847.5 1.00157
848 1.00157
848.5 1.00156
849 1.00156
849.5 1.00156
850 1.00155
850.5 1.00155
851 1.00154
851.5 1.00154
852 1.00154
852.5 1.00153
853 1.00153
853.5 1.00153
854 1.00152
854.5 1.00152
855 1.00152
855.5 1.00151
856 1.00151
856.5 1.00151
857 1.0015
857.5 1.0015
858 1.0015
858.5 1.00149
859 1.00149
859.5 1.00148
860 1.00148
860.5 1.00148
861 1.00147
861.5 1.00147
862 1.00147
862.5 1.00146
863 1.00146
863.5 1.00146
864 1.00145
864.5 1.00145
865 1.00145
865.5 1.00144
866 1.00144
866.5 1.00144
867 1.00143
867.5 1.00143
868 1.00143
868.5 1.00142
869 1.00142
869.5 1.00142
870 1.00142
870.5 1.00141
871 1.00141
871.5 1.00141
872 1.0014
872.5 1.0014
873 1.0014
873.5 1.00139
874 1.00139
874.5 1.00139
875 1.00138
875.5 1.00138
876 1.00138
876.5 1.00137
877 1.00137
877.5 1.00137
878 1.00136
878.5 1.00136
879 1.00136
879.5 1.00136
880 1.00135
880.5 1.00135
881 1.00135
881.5 1.00134
882 1.00134
882.5 1.00134
883 1.00133
883.5 1.00133
884 1.00133
884.5 1.00133
885 1.00132
885.5 1.00132
886 1.00132
886.5 1.00131
887 1.00131
887.5 1.00131
888 1.0013
888.5 1.0013
889 1.0013
889.5 1.0013
890 1.00129
890.5 1.00129
891 1.00129
891.5 1.00128
892 1.00128
892.5 1.00128
893 1.00128
893.5 1.00127
894 1.00127
894.5 1.00127
895 1.00126
895.5 1.00126
896 1.00126
896.5 1.00126
897 1.00125
897.5 1.00125
898 1.00125
898.5 1.00125
899 1.00124
899.5 1.00124
900 1.00124
900.5 1.00123
901 1.00123
901.5 1.00123
902 1.00123
902.5 1.00122
903 1.00122
903.5 1.00122
904 1.00122
904.5 1.00121
905 1.00121
905.5 1.00121
906 1.0012
906.5 1.0012
907 1.0012
907.5 1.0012
908 1.00119
908.5 1.00119
909 1.00119
909.5 1.00119
910 1.00118
910.5 1.00118
911 1.00118
911.5 1.00118
912 1.00117
912.5 1.00117
913 1.00117
913.5 1.00117
914 1.00116
914.5 1.00116
915 1.00116
915.5 1.00116
916 1.00115
916.5 1.00115
917 1.00115
917.5 1.00115
918 1.00114
918.5 1.00114
919 1.00114
919.5 1.00114
920 1.00113
920.5 1.00113
921 1.00113
921.5 1.00113
922 1.00112
922.5 1.00112
923 1.00112
923.5 1.00112
924 1.00111
924.5 1.00111
925 1.00111
925.5 1.00111
926 1.0011
926.5 1.0011
927 1.0011
927.5 1.0011
928 1.0011
928.5 1.00109
929 1.00109
929.5 1.00109
930 1.00109
930.5 1.00108
931 1.00108
931.5 1.00108
932 1.00108
932.5 1.00107
933 1.00107
933.5 1.00107
934 1.00107
934.5 1.00107
935 1.00106
935.5 1.00106
936 1.00106
936.5 1.00106
937 1.00105
937.5 1.00105
938 1.00105
938.5 1.00105
939 1.00105
939.5 1.00104
940 1.00104
940.5 1.00104
941 1.00104
941.5 1.00103
942 1.00103
942.5 1.00103
943 1.00103
943.5 1.00103
944 1.00102
944.5 1.00102
945 1.00102
945.5 1.00102
946 1.00101
946.5 1.00101
947 1.00101
947.5 1.00101
948 1.00101
948.5 1.001
949 1.001
949.5 1.001
950 1.001
950.5 1.001
951 1.00099
951.5 1.00099
952 1.00099
952.5 1.00099
953 1.00099
953.5 1.00098
954 1.00098
954.5 1.00098
955 1.00098
955.5 1.00098
956 1.00097
956.5 1.00097
957 1.00097
957.5 1.00097
958 1.00097
958.5 1.00096
959 1.00096
959.5 1.00096
960 1.00096
960.5 1.00096
961 1.00095
961.5 1.00095
962 1.00095
962.5 1.00095
963 1.00095
963.5 1.00094
964 1.00094
964.5 1.00094
965 1.00094
965.5 1.00094
966 1.00093
966.5 1.00093
967 1.00093
967.5 1.00093
968 1.00093
968.5 1.00092
969 1.00092
969.5 1.00092
970 1.00092
970.5 1.00092
971 1.00091
971.5 1.00091
972 1.00091
972.5 1.00091
973 1.00091
973.5 1.00091
974 1.0009
974.5 1.0009
975 1.0009
975.5 1.0009
976 1.0009
976.5 1.00089
977 1.00089
977.5 1.00089
978 1.00089
978.5 1.00089
979 1.00089
979.5 1.00088
980 1.00088
980.5 1.00088
981 1.00088
981.5 1.00088
982 1.00087
982.5 1.00087
983 1.00087
983.5 1.00087
984 1.00087
984.5 1.00087
985 1.00086
985.5 1.00086
986 1.00086
986.5 1.00086
987 1.00086
987.5 1.00086
988 1.00085
988.5 1.00085
989 1.00085
989.5 1.00085
990 1.00085
990.5 1.00085
991 1.00084
991.5 1.00084
992 1.00084
992.5 1.00084
993 1.00084
993.5 1.00083
994 1.00083
994.5 1.00083
995 1.00083
995.5 1.00083
996 1.00083
996.5 1.00082
997 1.00082
997.5 1.00082
998 1.00082
998.5 1.00082
999 1.00082
999.5 1.00082
1000 1.00081
1000.5 1.00081
1001 1.00081
1001.5 1.00081
1002 1.00081
1002.5 1.00081
1003 1.0008
1003.5 1.0008
1004 1.0008
1004.5 1.0008
1005 1.0008
1005.5 1.0008
1006 1.00079
1006.5 1.00079
1007 1.00079
1007.5 1.00079
1008 1.00079
1008.5 1.00079
1009 1.00079
1009.5 1.00078
1010 1.00078
1010.5 1.00078
1011 1.00078
1011.5 1.00078
1012 1.00078
1012.5 1.00077
1013 1.00077
1013.5 1.00077
1014 1.00077
1014.5 1.00077
1015 1.00077
1015.5 1.00077
1016 1.00076
1016.5 1.00076
1017 1.00076
1017.5 1.00076
1018 1.00076
1018.5 1.00076
1019 1.00075
1019.5 1.00075
1020 1.00075
1020.5 1.00075
1021 1.00075
1021.5 1.00075
1022 1.00075
1022.5 1.00074
1023 1.00074
1023.5 1.00074
1024 1.00074
1024.5 1.00074
1025 1.00074
1025.5 1.00074
1026 1.00073
1026.5 1.00073
1027 1.00073
1027.5 1.00073
1028 1.00073
1028.5 1.00073
1029 1.00073
1029.5 1.00072
1030 1.00072
1030.5 1.00072
1031 1.00072
1031.5 1.00072
1032 1.00072
1032.5 1.00072
1033 1.00071
1033.5 1.00071
1034 1.00071
1034.5 1.00071
1035 1.00071
1035.5 1.00071
1036 1.00071
1036.5 1.00071
1037 1.0007
1037.5 1.0007
1038 1.0007
1038.5 1.0007
1039 1.0007
1039.5 1.0007
1040 1.0007
1040.5 1.00069
1041 1.00069
1041.5 1.00069
1042 1.00069
1042.5 1.00069
1043 1.00069
1043.5 1.00069
1044 1.00069
1044.5 1.00068
1045 1.00068
1045.5 1.00068
1046 1.00068
1046.5 1.00068
1047 1.00068
1047.5 1.00068
1048 1.00067
1048.5 1.00067
1049 1.00067
1049.5 1.00067
1050 1.00067
1050.5 1.00067
1051 1.00067
1051.5 1.00067
1052 1.00066
1052.5 1.00066
1053 1.00066
1053.5 1.00066
1054 1.00066
1054.5 1.00066
1055 1.00066
1055.5 1.00066
1056 1.00065
1056.5 1.00065
1057 1.00065
1057.5 1.00065
1058 1.00065
1058.5 1.00065
1059 1.00065
1059.5 1.00065
1060 1.00064
1060.5 1.00064
1061 1.00064
1061.5 1.00064
1062 1.00064
1062.5 1.00064
1063 1.00064
1063.5 1.00064
1064 1.00064
1064.5 1.00063
1065 1.00063
1065.5 1.00063
1066 1.00063
1066.5 1.00063
1067 1.00063
1067.5 1.00063
1068 1.00063
1068.5 1.00062
1069 1.00062
1069.5 1.00062
1070 1.00062
1070.5 1.00062
1071 1.00062
1071.5 1.00062
1072 1.00062
1072.5 1.00062
1073 1.00061
1073.5 1.00061
1074 1.00061
1074.5 1.00061
1075 1.00061
1075.5 1.00061
1076 1.00061
1076.5 1.00061
1077 1.00061
1077.5 1.0006
1078 1.0006
1078.5 1.0006
1079 1.0006
1079.5 1.0006
1080 1.0006
1080.5 1.0006
1081 1.0006
1081.5 1.0006
1082 1.00059
1082.5 1.00059
1083 1.00059
1083.5 1.00059
1084 1.00059
1084.5 1.00059
1085 1.00059
1085.5 1.00059
1086 1.00059
1086.5 1.00058
1087 1.00058
1087.5 1.00058
1088 1.00058
1088.5 1.00058
1089 1.00058
1089.5 1.00058
1090 1.00058
1090.5 1.00058
1091 1.00057
1091.5 1.00057
1092 1.00057
1092.5 1.00057
1093 1.00057
1093.5 1.00057
1094 1.00057
1094.5 1.00057
1095 1.00057
1095.5 1.00057
1096 1.00056
1096.5 1.00056
1097 1.00056
1097.5 1.00056
1098 1.00056
1098.5 1.00056
1099 1.00056
1099.5 1.00056
1100 1.00056
1100.5 1.00056
1101 1.00055
1101.5 1.00055
1102 1.00055
1102.5 1.00055
1103 1.00055
1103.5 1.00055
1104 1.00055
1104.5 1.00055
1105 1.00055
1105.5 1.00055
1106 1.00054
1106.5 1.00054
1107 1.00054
1107.5 1.00054
1108 1.00054
1108.5 1.00054
1109 1.00054
1109.5 1.00054
1110 1.00054
1110.5 1.00054
1111 1.00053
1111.5 1.00053
1112 1.00053
1112.5 1.00053
1113 1.00053
1113.5 1.00053
1114 1.00053
1114.5 1.00053
1115 1.00053
1115.5 1.00053
1116 1.00053
1116.5 1.00052
1117 1.00052
1117.5 1.00052
1118 1.00052
1118.5 1.00052
1119 1.00052
1119.5 1.00052
1120 1.00052
1120.5 1.00052
1121 1.00052
1121.5 1.00052
1122 1.00051
1122.5 1.00051
1123 1.00051
1123.5 1.00051
1124 1.00051
1124.5 1.00051
1125 1.00051
1125.5 1.00051
1126 1.00051
1126.5 1.00051
1127 1.00051
1127.5 1.0005
1128 1.0005
1128.5 1.0005
1129 1.0005
1129.5 1.0005
1130 1.0005
1130.5 1.0005
1131 1.0005
1131.5 1.0005
1132 1.0005
1132.5 1.0005
1133 1.00049
1133.5 1.00049
1134 1.00049
1134.5 1.00049
1135 1.00049
1135.5 1.00049
1136 1.00049
1136.5 1.00049
1137 1.00049
1137.5 1.00049
1138 1.00049
1138.5 1.00049
1139 1.00048
1139.5 1.00048
1140 1.00048
1140.5 1.00048
1141 1.00048
1141.5 1.00048
1142 1.00048
1142.5 1.00048
1143 1.00048
1143.5 1.00048
1144 1.00048
1144.5 1.00048
1145 1.00047
1145.5 1.00047
1146 1.00047
1146.5 1.00047
1147 1.00047
1147.5 1.00047
1148 1.00047
1148.5 1.00047
1149 1.00047
1149.5 1.00047
1150 1.00047
1150.5 1.00047
1151 1.00046
1151.5 1.00046
1152 1.00046
1152.5 1.00046
1153 1.00046
1153.5 1.00046
1154 1.00046
1154.5 1.00046
1155 1.00046
1155.5 1.00046
1156 1.00046
1156.5 1.00046
1157 1.00045
1157.5 1.00045
1158 1.00045
1158.5 1.00045
1159 1.00045
1159.5 1.00045
1160 1.00045
1160.5 1.00045
1161 1.00045
1161.5 1.00045
1162 1.00045
1162.5 1.00045
1163 1.00045
1163.5 1.00044
1164 1.00044
1164.5 1.00044
1165 1.00044
1165.5 1.00044
1166 1.00044
1166.5 1.00044
1167 1.00044
1167.5 1.00044
1168 1.00044
1168.5 1.00044
1169 1.00044
1169.5 1.00044
1170 1.00044
1170.5 1.00043
1171 1.00043
1171.5 1.00043
1172 1.00043
1172.5 1.00043
1173 1.00043
1173.5 1.00043
1174 1.00043
1174.5 1.00043
1175 1.00043
1175.5 1.00043
1176 1.00043
1176.5 1.00043
1177 1.00042
1177.5 1.00042
1178 1.00042
1178.5 1.00042
1179 1.00042
1179.5 1.00042
1180 1.00042
1180.5 1.00042
1181 1.00042
1181.5 1.00042
1182 1.00042
1182.5 1.00042
1183 1.00042
1183.5 1.00042
1184 1.00041
1184.5 1.00041
1185 1.00041
1185.5 1.00041
1186 1.00041
1186.5 1.00041
1187 1.00041
1187.5 1.00041
1188 1.00041
1188.5 1.00041
1189 1.00041
1189.5 1.00041
1190 1.00041
1190.5 1.00041
1191 1.00041
1191.5 1.0004
1192 1.0004
1192.5 1.0004
1193 1.0004
1193.5 1.0004
1194 1.0004
1194.5 1.0004
1195 1.0004
1195.5 1.0004
1196 1.0004
1196.5 1.0004
1197 1.0004
1197.5 1.0004
1198 1.0004
1198.5 1.0004
1199 1.00039
1199.5 1.00039
1200 1.00039
1200.5 1.00039
1201 1.00039
1201.5 1.00039
1202 1.00039
1202.5 1.00039
1203 1.00039
1203.5 1.00039
1204 1.00039
1204.5 1.00039
1205 1.00039
1205.5 1.00039
1206 1.00039
1206.5 1.00038
1207 1.00038
1207.5 1.00038
1208 1.00038
1208.5 1.00038
1209 1.00038
1209.5 1.00038
1210 1.00038
1210.5 1.00038
1211 1.00038
1211.5 1.00038
1212 1.00038
1212.5 1.00038
1213 1.00038
1213.5 1.00038
1214 1.00038
1214.5 1.00037
1215 1.00037
1215.5 1.00037
1216 1.00037
1216.5 1.00037
1217 1.00037
1217.5 1.00037
1218 1.00037
1218.5 1.00037
1219 1.00037
1219.5 1.00037
1220 1.00037
1220.5 1.00037
1221 1.00037
1221.5 1.00037
1222 1.00037
1222.5 1.00037
1223 1.00036
1223.5 1.00036
1224 1.00036
1224.5 1.00036
1225 1.00036
1225.5 1.00036
1226 1.00036
1226.5 1.00036
1227 1.00036
1227.5 1.00036
1228 1.00036
1228.5 1.00036
1229 1.00036
1229.5 1.00036
1230 1.00036
1230.5 1.00036
1231 1.00036
1231.5 1.00035
1232 1.00035
1232.5 1.00035
1233 1.00035
1233.5 1.00035
1234 1.00035
1234.5 1.00035
1235 1.00035
1235.5 1.00035
1236 1.00035
1236.5 1.00035
1237 1.00035
1237.5 1.00035
1238 1.00035
1238.5 1.00035
1239 1.00035
1239.5 1.00035
1240 1.00035
1240.5 1.00034
1241 1.00034
1241.5 1.00034
1242 1.00034
1242.5 1.00034
1243 1.00034
1243.5 1.00034
1244 1.00034
1244.5 1.00034
1245 1.00034
1245.5 1.00034
1246 1.00034
1246.5 1.00034
1247 1.00034
1247.5 1.00034
1248 1.00034
1248.5 1.00034
1249 1.00034
1249.5 1.00033
1250 1.00033
1250.5 1.00033
1251 1.00033
1251.5 1.00033
1252 1.00033
1252.5 1.00033
1253 1.00033
1253.5 1.00033
1254 1.00033
1254.5 1.00033
1255 1.00033
1255.5 1.00033
1256 1.00033
1256.5 1.00033
1257 1.00033
1257.5 1.00033
1258 1.00033
1258.5 1.00033
1259 1.00032
1259.5 1.00032
1260 1.00032
1260.5 1.00032
1261 1.00032
1261.5 1.00032
1262 1.00032
1262.5 1.00032
1263 1.00032
1263.5 1.00032
1264 1.00032
1264.5 1.00032
1265 1.00032
1265.5 1.00032
1266 1.00032
1266.5 1.00032
1267 1.00032
1267.5 1.00032
1268 1.00032
1268.5 1.00032
1269 1.00031
1269.5 1.00031
1270 1.00031
1270.5 1.00031
1271 1.00031
1271.5 1.00031
1272 1.00031
1272.5 1.00031
1273 1.00031
1273.5 1.00031
1274 1.00031
1274.5 1.00031
1275 1.00031
1275.5 1.00031
1276 1.00031
1276.5 1.00031
1277 1.00031
1277.5 1.00031
1278 1.00031
1278.5 1.00031
1279 1.0003
1279.5 1.0003
1280 1.0003
1280.5 1.0003
1281 1.0003
1281.5 1.0003
1282 1.0003
1282.5 1.0003
1283 1.0003
1283.5 1.0003
1284 1.0003
1284.5 1.0003
1285 1.0003
1285.5 1.0003
1286 1.0003
1286.5 1.0003
1287 1.0003
1287.5 1.0003
1288 1.0003
1288.5 1.0003
1289 1.0003
1289.5 1.0003
1290 1.00029
1290.5 1.00029
1291 1.00029
1291.5 1.00029
1292 1.00029
1292.5 1.00029
1293 1.00029
1293.5 1.00029
1294 1.00029
1294.5 1.00029
1295 1.00029
1295.5 1.00029
1296 1.00029
1296.5 1.00029
1297 1.00029
1297.5 1.00029
1298 1.00029
1298.5 1.00029
1299 1.00029
1299.5 1.00029
1300 1.00029
1300.5 1.00029
1301 1.00028
1301.5 1.00028
1302 1.00028
1302.5 1.00028
1303 1.00028
1303.5 1.00028
1304 1.00028
1304.5 1.00028
1305 1.00028
1305.5 1.00028
1306 1.00028
1306.5 1.00028
1307 1.00028
1307.5 1.00028
1308 1.00028
1308.5 1.00028
1309 1.00028
1309.5 1.00028
1310 1.00028
1310.5 1.00028
1311 1.00028
1311.5 1.00028
1312 1.00028
1312.5 1.00028
1313 1.00027
1313.5 1.00027
1314 1.00027
1314.5 1.00027
1315 1.00027
1315.5 1.00027
1316 1.00027
1316.5 1.00027
1317 1.00027
1317.5 1.00027
1318 1.00027
1318.5 1.00027
1319 1.00027
1319.5 1.00027
1320 1.00027
1320.5 1.00027
1321 1.00027
1321.5 1.00027
1322 1.00027
1322.5 1.00027
1323 1.00027
1323.5 1.00027
1324 1.00027
1324.5 1.00027
1325 1.00026
1325.5 1.00026
1326 1.00026
1326.5 1.00026
1327 1.00026
1327.5 1.00026
1328 1.00026
1328.5 1.00026
1329 1.00026
1329.5 1.00026
1330 1.00026
1330.5 1.00026
1331 1.00026
1331.5 1.00026
1332 1.00026
1332.5 1.00026
1333 1.00026
1333.5 1.00026
1334 1.00026
1334.5 1.00026
1335 1.00026
1335.5 1.00026
1336 1.00026
1336.5 1.00026
1337 1.00026
1337.5 1.00026
1338 1.00025
1338.5 1.00025
1339 1.00025
1339.5 1.00025
1340 1.00025
1340.5 1.00025
1341 1.00025
1341.5 1.00025
1342 1.00025
1342.5 1.00025
1343 1.00025
1343.5 1.00025
1344 1.00025
1344.5 1.00025
1345 1.00025
1345.5 1.00025
1346 1.00025
1346.5 1.00025
1347 1.00025
1347.5 1.00025
1348 1.00025
1348.5 1.00025
1349 1.00025
1349.5 1.00025
1350 1.00025
1350.5 1.00025
1351 1.00025
1351.5 1.00024
1352 1.00024
1352.5 1.00024
1353 1.00024
1353.5 1.00024
1354 1.00024
1354.5 1.00024
1355 1.00024
1355.5 1.00024
1356 1.00024
1356.5 1.00024
1357 1.00024
1357.5 1.00024
1358 1.00024
1358.5 1.00024
1359 1.00024
1359.5 1.00024
1360 1.00024
1360.5 1.00024
1361 1.00024
1361.5 1.00024
1362 1.00024
1362.5 1.00024
1363 1.00024
1363.5 1.00024
1364 1.00024
1364.5 1.00024
1365 1.00024
1365.5 1.00023
1366 1.00023
1366.5 1.00023
1367 1.00023
1367.5 1.00023
1368 1.00023
1368.5 1.00023
1369 1.00023
1369.5 1.00023
1370 1.00023
1370.5 1.00023
1371 1.00023
1371.5 1.00023
1372 1.00023
1372.5 1.00023
1373 1.00023
1373.5 1.00023
1374 1.00023
1374.5 1.00023
1375 1.00023
1375.5 1.00023
1376 1.00023
1376.5 1.00023
1377 1.00023
1377.5 1.00023
1378 1.00023
1378.5 1.00023
1379 1.00023
1379.5 1.00023
1380 1.00023
1380.5 1.00022
1381 1.00022
1381.5 1.00022
1382 1.00022
1382.5 1.00022
1383 1.00022
1383.5 1.00022
1384 1.00022
1384.5 1.00022
1385 1.00022
1385.5 1.00022
1386 1.00022
1386.5 1.00022
1387 1.00022
1387.5 1.00022
1388 1.00022
1388.5 1.00022
1389 1.00022
1389.5 1.00022
1390 1.00022
1390.5 1.00022
1391 1.00022
1391.5 1.00022
1392 1.00022
1392.5 1.00022
1393 1.00022
1393.5 1.00022
1394 1.00022
1394.5 1.00022
1395 1.00022
1395.5 1.00022
1396 1.00022
1396.5 1.00021
1397 1.00021
1397.5 1.00021
1398 1.00021
1398.5 1.00021
1399 1.00021
1399.5 1.00021
1400 1.00021
1400.5 1.00021
1401 1.00021
1401.5 1.00021
1402 1.00021
1402.5 1.00021
1403 1.00021
1403.5 1.00021
1404 1.00021
1404.5 1.00021
1405 1.00021
1405.5 1.00021
1406 1.00021
1406.5 1.00021
1407 1.00021
1407.5 1.00021
1408 1.00021
1408.5 1.00021
1409 1.00021
1409.5 1.00021
1410 1.00021
1410.5 1.00021
1411 1.00021
1411.5 1.00021
1412 1.00021
1412.5 1.00021
1413 1.0002
1413.5 1.0002
1414 1.0002
1414.5 1.0002
1415 1.0002
1415.5 1.0002
1416 1.0002
1416.5 1.0002
1417 1.0002
1417.5 1.0002
1418 1.0002
1418.5 1.0002
1419 1.0002
1419.5 1.0002
1420 1.0002
1420.5 1.0002
1421 1.0002
1421.5 1.0002
1422 1.0002
1422.5 1.0002
1423 1.0002
1423.5 1.0002
1424 1.0002
1424.5 1.0002
1425 1.0002
1425.5 1.0002
1426 1.0002
1426.5 1.0002
1427 1.0002
1427.5 1.0002
1428 1.0002
1428.5 1.0002
1429 1.0002
1429.5 1.0002
1430 1.0002
1430.5 1.0002
1431 1.00019
1431.5 1.00019
1432 1.00019
1432.5 1.00019
1433 1.00019
1433.5 1.00019
1434 1.00019
1434.5 1.00019
1435 1.00019
1435.5 1.00019
1436 1.00019
1436.5 1.00019
1437 1.00019
1437.5 1.00019
1438 1.00019
1438.5 1.00019
1439 1.00019
1439.5 1.00019
1440 1.00019
1440.5 1.00019
1441 1.00019
1441.5 1.00019
1442 1.00019
1442.5 1.00019
1443 1.00019
1443.5 1.00019
1444 1.00019
1444.5 1.00019
1445 1.00019
1445.5 1.00019
1446 1.00019
1446.5 1.00019
1447 1.00019
1447.5 1.00019
1448 1.00019
1448.5 1.00019
1449 1.00019
1449.5 1.00019
1450 1.00018
1450.5 1.00018
1451 1.00018
1451.5 1.00018
1452 1.00018
1452.5 1.00018
1453 1.00018
1453.5 1.00018
1454 1.00018
1454.5 1.00018
1455 1.00018
1455.5 1.00018
1456 1.00018
1456.5 1.00018
1457 1.00018
1457.5 1.00018
1458 1.00018
1458.5 1.00018
1459 1.00018
1459.5 1.00018
1460 1.00018
1460.5 1.00018
1461 1.00018
1461.5 1.00018
1462 1.00018
1462.5 1.00018
1463 1.00018
1463.5 1.00018
1464 1.00018
1464.5 1.00018
1465 1.00018
1465.5 1.00018
1466 1.00018
1466.5 1.00018
1467 1.00018
1467.5 1.00018
1468 1.00018
1468.5 1.00018
1469 1.00018
1469.5 1.00018
1470 1.00017
1470.5 1.00017
1471 1.00017
1471.5 1.00017
1472 1.00017
1472.5 1.00017
1473 1.00017
1473.5 1.00017
1474 1.00017
1474.5 1.00017
1475 1.00017
1475.5 1.00017
1476 1.00017
1476.5 1.00017
1477 1.00017
1477.5 1.00017
1478 1.00017
1478.5 1.00017
1479 1.00017
1479.5 1.00017
1480 1.00017
1480.5 1.00017
1481 1.00017
1481.5 1.00017
1482 1.00017
1482.5 1.00017
1483 1.00017
1483.5 1.00017
1484 1.00017
1484.5 1.00017
1485 1.00017
1485.5 1.00017
1486 1.00017
1486.5 1.00017
1487 1.00017
1487.5 1.00017
1488 1.00017
1488.5 1.00017
1489 1.00017
1489.5 1.00017
1490 1.00017
1490.5 1.00017
1491 1.00017
1491.5 1.00017
1492 1.00016
1492.5 1.00016
1493 1.00016
1493.5 1.00016
1494 1.00016
1494.5 1.00016
1495 1.00016
1495.5 1.00016
1496 1.00016
1496.5 1.00016
1497 1.00016
1497.5 1.00016
1498 1.00016
1498.5 1.00016
1499 1.00016
1499.5 1.00016
1500 1.00016
1500.5 1.00016
1501 1.00016
1501.5 1.00016
1502 1.00016
1502.5 1.00016
1503 1.00016
1503.5 1.00016
1504 1.00016
1504.5 1.00016
1505 1.00016
1505.5 1.00016
1506 1.00016
1506.5 1.00016
1507 1.00016
1507.5 1.00016
1508 1.00016
1508.5 1.00016
1509 1.00016
1509.5 1.00016
1510 1.00016
1510.5 1.00016
1511 1.00016
1511.5 1.00016
1512 1.00016
1512.5 1.00016
1513 1.00016
1513.5 1.00016
1514 1.00016
1514.5 1.00016
1515 1.00016
1515.5 1.00015
1516 1.00015
1516.5 1.00015
1517 1.00015
1517.5 1.00015
1518 1.00015
1518.5 1.00015
1519 1.00015
1519.5 1.00015
1520 1.00015
1520.5 1.00015
1521 1.00015
1521.5 1.00015
1522 1.00015
1522.5 1.00015
1523 1.00015
1523.5 1.00015
1524 1.00015
1524.5 1.00015
1525 1.00015
1525.5 1.00015
1526 1.00015
1526.5 1.00015
1527 1.00015
1527.5 1.00015
1528 1.00015
1528.5 1.00015
1529 1.00015
1529.5 1.00015
1530 1.00015
1530.5 1.00015
1531 1.00015
1531.5 1.00015
1532 1.00015
1532.5 1.00015
1533 1.00015
1533.5 1.00015
1534 1.00015
1534.5 1.00015
1535 1.00015
1535.5 1.00015
1536 1.00015
1536.5 1.00015
1537 1.00015
1537.5 1.00015
1538 1.00015
1538.5 1.00015
1539 1.00015
1539.5 1.00015
1540 1.00015
1540.5 1.00015
1541 1.00014
1541.5 1.00014
1542 1.00014
1542.5 1.00014
1543 1.00014
1543.5 1.00014
1544 1.00014
1544.5 1.00014
1545 1.00014
1545.5 1.00014
1546 1.00014
1546.5 1.00014
1547 1.00014
1547.5 1.00014
1548 1.00014
1548.5 1.00014
1549 1.00014
1549.5 1.00014
1550 1.00014
1550.5 1.00014
1551 1.00014
1551.5 1.00014
1552 1.00014
1552.5 1.00014
1553 1.00014
1553.5 1.00014
1554 1.00014
1554.5 1.00014
1555 1.00014
1555.5 1.00014
1556 1.00014
1556.5 1.00014
1557 1.00014
1557.5 1.00014
1558 1.00014
1558.5 1.00014
1559 1.00014
1559.5 1.00014
1560 1.00014
1560.5 1.00014
1561 1.00014
1561.5 1.00014
1562 1.00014
1562.5 1.00014
1563 1.00014
1563.5 1.00014
1564 1.00014
1564.5 1.00014
1565 1.00014
1565.5 1.00014
1566 1.00014
1566.5 1.00014
1567 1.00014
1567.5 1.00014
1568 1.00014
1568.5 1.00014
1569 1.00013
1569.5 1.00013
1570 1.00013
1570.5 1.00013
1571 1.00013
1571.5 1.00013
1572 1.00013
1572.5 1.00013
1573 1.00013
1573.5 1.00013
1574 1.00013
1574.5 1.00013
1575 1.00013
1575.5 1.00013
1576 1.00013
1576.5 1.00013
1577 1.00013
1577.5 1.00013
1578 1.00013
1578.5 1.00013
1579 1.00013
1579.5 1.00013
1580 1.00013
1580.5 1.00013
1581 1.00013
1581.5 1.00013
1582 1.00013
1582.5 1.00013
1583 1.00013
1583.5 1.00013
1584 1.00013
1584.5 1.00013
1585 1.00013
1585.5 1.00013
1586 1.00013
1586.5 1.00013
1587 1.00013
1587.5 1.00013
1588 1.00013
1588.5 1.00013
1589 1.00013
1589.5 1.00013
1590 1.00013
1590.5 1.00013
1591 1.00013
1591.5 1.00013
1592 1.00013
1592.5 1.00013
1593 1.00013
1593.5 1.00013
1594 1.00013
1594.5 1.00013
1595 1.00013
1595.5 1.00013
1596 1.00013
1596.5 1.00013
1597 1.00013
1597.5 1.00013
1598 1.00013
1598.5 1.00013
1599 1.00013
1599.5 1.00012
1600 1.00012
1600.5 1.00012
1601 1.00012
1601.5 1.00012
1602 1.00012
1602.5 1.00012
1603 1.00012
1603.5 1.00012
1604 1.00012
1604.5 1.00012
1605 1.00012
1605.5 1.00012
1606 1.00012
1606.5 1.00012
1607 1.00012
1607.5 1.00012
1608 1.00012
1608.5 1.00012
1609 1.00012
1609.5 1.00012
1610 1.00012
1610.5 1.00012
1611 1.00012
1611.5 1.00012
1612 1.00012
1612.5 1.00012
1613 1.00012
1613.5 1.00012
1614 1.00012
1614.5 1.00012
1615 1.00012
1615.5 1.00012
1616 1.00012
1616.5 1.00012
1617 1.00012
1617.5 1.00012
1618 1.00012
1618.5 1.00012
1619 1.00012
1619.5 1.00012
1620 1.00012
1620.5 1.00012
1621 1.00012
1621.5 1.00012
1622 1.00012
1622.5 1.00012
1623 1.00012
1623.5 1.00012
1624 1.00012
1624.5 1.00012
1625 1.00012
1625.5 1.00012
1626 1.00012
1626.5 1.00012
1627 1.00012
1627.5 1.00012
1628 1.00012
1628.5 1.00012
1629 1.00012
1629.5 1.00012
1630 1.00012
1630.5 1.00012
1631 1.00012
1631.5 1.00012
1632 1.00012
1632.5 1.00012
1633 1.00011
1633.5 1.00011
1634 1.00011
1634.5 1.00011
1635 1.00011
1635.5 1.00011
1636 1.00011
1636.5 1.00011
1637 1.00011
1637.5 1.00011
1638 1.00011
1638.5 1.00011
1639 1.00011
1639.5 1.00011
1640 1.00011
1640.5 1.00011
1641 1.00011
1641.5 1.00011
1642 1.00011
1642.5 1.00011
1643 1.00011
1643.5 1.00011
1644 1.00011
1644.5 1.00011
1645 1.00011
1645.5 1.00011
1646 1.00011
1646.5 1.00011
1647 1.00011
1647.5 1.00011
1648 1.00011
1648.5 1.00011
1649 1.00011
1649.5 1.00011
1650 1.00011
1650.5 1.00011
1651 1.00011
1651.5 1.00011
1652 1.00011
1652.5 1.00011
1653 1.00011
1653.5 1.00011
1654 1.00011
1654.5 1.00011
1655 1.00011
1655.5 1.00011
1656 1.00011
1656.5 1.00011
1657 1.00011
1657.5 1.00011
1658 1.00011
1658.5 1.00011
1659 1.00011
1659.5 1.00011
1660 1.00011
1660.5 1.00011
1661 1.00011
1661.5 1.00011
1662 1.00011
1662.5 1.00011
1663 1.00011
1663.5 1.00011
1664 1.00011
1664.5 1.00011
1665 1.00011
1665.5 1.00011
1666 1.00011
1666.5 1.00011
1667 1.00011
1667.5 1.00011
1668 1.00011
1668.5 1.00011
1669 1.00011
1669.5 1.00011
1670 1.00011
1670.5 1.00011
1671 1.0001
1671.5 1.0001
1672 1.0001
1672.5 1.0001
1673 1.0001
1673.5 1.0001
1674 1.0001
1674.5 1.0001
1675 1.0001
1675.5 1.0001
1676 1.0001
1676.5 1.0001
1677 1.0001
1677.5 1.0001
1678 1.0001
1678.5 1.0001
1679 1.0001
1679.5 1.0001
1680 1.0001
1680.5 1.0001
1681 1.0001
1681.5 1.0001
1682 1.0001
1682.5 1.0001
1683 1.0001
1683.5 1.0001
1684 1.0001
1684.5 1.0001
1685 1.0001
1685.5 1.0001
1686 1.0001
1686.5 1.0001
1687 1.0001
1687.5 1.0001
1688 1.0001
1688.5 1.0001
1689 1.0001
1689.5 1.0001
1690 1.0001
1690.5 1.0001
1691 1.0001
1691.5 1.0001
1692 1.0001
1692.5 1.0001
1693 1.0001
1693.5 1.0001
1694 1.0001
1694.5 1.0001
1695 1.0001
1695.5 1.0001
1696 1.0001
1696.5 1.0001
1697 1.0001
1697.5 1.0001
1698 1.0001
1698.5 1.0001
1699 1.0001
1699.5 1.0001
1700 1.0001
1700.5 1.0001
1701 1.0001
1701.5 1.0001
1702 1.0001
1702.5 1.0001
1703 1.0001
1703.5 1.0001
1704 1.0001
1704.5 1.0001
1705 1.0001
1705.5 1.0001
1706 1.0001
1706.5 1.0001
1707 1.0001
1707.5 1.0001
1708 1.0001
1708.5 1.0001
1709 1.0001
1709.5 1.0001
1710 1.0001
1710.5 1.0001
1711 1.0001
1711.5 1.0001
1712 1.0001
1712.5 1.0001
1713 1.00009
1713.5 1.00009
1714 1.00009
1714.5 1.00009
1715 1.00009
1715.5 1.00009
1716 1.00009
1716.5 1.00009
1717 1.00009
1717.5 1.00009
1718 1.00009
1718.5 1.00009
1719 1.00009
1719.5 1.00009
1720 1.00009
1720.5 1.00009
1721 1.00009
1721.5 1.00009
1722 1.00009
1722.5 1.00009
1723 1.00009
1723.5 1.00009
1724 1.00009
1724.5 1.00009
1725 1.00009
1725.5 1.00009
1726 1.00009
1726.5 1.00009
1727 1.00009
1727.5 1.00009
1728 1.00009
1728.5 1.00009
1729 1.00009
1729.5 1.00009
1730 1.00009
1730.5 1.00009
1731 1.00009
1731.5 1.00009
1732 1.00009
1732.5 1.00009
1733 1.00009
1733.5 1.00009
1734 1.00009
1734.5 1.00009
1735 1.00009
1735.5 1.00009
1736 1.00009
1736.5 1.00009
1737 1.00009
1737.5 1.00009
1738 1.00009
1738.5 1.00009
1739 1.00009
1739.5 1.00009
1740 1.00009
1740.5 1.00009
1741 1.00009
1741.5 1.00009
1742 1.00009
1742.5 1.00009
1743 1.00009
1743.5 1.00009
1744 1.00009
1744.5 1.00009
1745 1.00009
1745.5 1.00009
1746 1.00009
1746.5 1.00009
1747 1.00009
1747.5 1.00009
1748 1.00009
1748.5 1.00009
1749 1.00009
1749.5 1.00009
1750 1.00009
1750.5 1.00009
1751 1.00009
1751.5 1.00009
1752 1.00009
1752.5 1.00009
1753 1.00009
1753.5 1.00009
1754 1.00009
1754.5 1.00009
1755 1.00009
1755.5 1.00009
1756 1.00009
1756.5 1.00009
1757 1.00009
1757.5 1.00009
1758 1.00009
1758.5 1.00009
1759 1.00009
1759.5 1.00009
1760 1.00009
1760.5 1.00009
1761 1.00009
1761.5 1.00008
1762 1.00008
1762.5 1.00008
1763 1.00008
1763.5 1.00008
1764 1.00008
1764.5 1.00008
1765 1.00008
1765.5 1.00008
1766 1.00008
1766.5 1.00008
1767 1.00008
1767.5 1.00008
1768 1.00008
1768.5 1.00008
1769 1.00008
1769.5 1.00008
1770 1.00008
1770.5 1.00008
1771 1.00008
1771.5 1.00008
1772 1.00008
1772.5 1.00008
1773 1.00008
1773.5 1.00008
1774 1.00008
1774.5 1.00008
1775 1.00008
1775.5 1.00008
1776 1.00008
1776.5 1.00008
1777 1.00008
1777.5 1.00008
1778 1.00008
1778.5 1.00008
1779 1.00008
1779.5 1.00008
1780 1.00008
1780.5 1.00008
1781 1.00008
1781.5 1.00008
1782 1.00008
1782.5 1.00008
1783 1.00008
1783.5 1.00008
1784 1.00008
1784.5 1.00008
1785 1.00008
1785.5 1.00008
1786 1.00008
1786.5 1.00008
1787 1.00008
1787.5 1.00008
1788 1.00008
1788.5 1.00008
1789 1.00008
1789.5 1.00008
1790 1.00008
1790.5 1.00008
1791 1.00008
1791.5 1.00008
1792 1.00008
1792.5 1.00008
1793 1.00008
1793.5 1.00008
1794 1.00008
1794.5 1.00008
1795 1.00008
1795.5 1.00008
1796 1.00008
1796.5 1.00008
1797 1.00008
1797.5 1.00008
1798 1.00008
1798.5 1.00008
1799 1.00008
1799.5 1.00008
1800 1.00008
1800.5 1.00008
1801 1.00008
1801.5 1.00008
1802 1.00008
1802.5 1.00008
1803 1.00008
1803.5 1.00008
1804 1.00008
1804.5 1.00008
1805 1.00008
1805.5 1.00008
1806 1.00008
1806.5 1.00008
1807 1.00008
1807.5 1.00008
1808 1.00008
1808.5 1.00008
1809 1.00008
1809.5 1.00008
1810 1.00008
1810.5 1.00008
1811 1.00008
1811.5 1.00008
1812 1.00008
1812.5 1.00008
1813 1.00008
1813.5 1.00008
1814 1.00008
1814.5 1.00008
1815 1.00008
1815.5 1.00008
1816 1.00008
1816.5 1.00008
1817 1.00008
1817.5 1.00007
1818 1.00007
1818.5 1.00007
1819 1.00007
1819.5 1.00007
1820 1.00007
1820.5 1.00007
1821 1.00007
1821.5 1.00007
1822 1.00007
1822.5 1.00007
1823 1.00007
1823.5 1.00007
1824 1.00007
1824.5 1.00007
1825 1.00007
1825.5 1.00007
1826 1.00007
1826.5 1.00007
1827 1.00007
1827.5 1.00007
1828 1.00007
1828.5 1.00007
1829 1.00007
1829.5 1.00007
1830 1.00007
1830.5 1.00007
1831 1.00007
1831.5 1.00007
1832 1.00007
1832.5 1.00007
1833 1.00007
1833.5 1.00007
1834 1.00007
1834.5 1.00007
1835 1.00007
1835.5 1.00007
1836 1.00007
1836.5 1.00007
1837 1.00007
1837.5 1.00007
1838 1.00007
1838.5 1.00007
1839 1.00007
1839.5 1.00007
1840 1.00007
1840.5 1.00007
1841 1.00007
1841.5 1.00007
1842 1.00007
1842.5 1.00007
1843 1.00007
1843.5 1.00007
1844 1.00007
1844.5 1.00007
1845 1.00007
1845.5 1.00007
1846 1.00007
1846.5 1.00007
1847 1.00007
1847.5 1.00007
1848 1.00007
1848.5 1.00007
1849 1.00007
1849.5 1.00007
1850 1.00007
1850.5 1.00007
1851 1.00007
1851.5 1.00007
1852 1.00007
1852.5 1.00007
1853 1.00007
1853.5 1.00007
1854 1.00007
1854.5 1.00007
1855 1.00007
1855.5 1.00007
1856 1.00007
1856.5 1.00007
1857 1.00007
1857.5 1.00007
1858 1.00007
1858.5 1.00007
1859 1.00007
1859.5 1.00007
1860 1.00007
1860.5 1.00007
1861 1.00007
1861.5 1.00007
1862 1.00007
1862.5 1.00007
1863 1.00007
1863.5 1.00007
1864 1.00007
1864.5 1.00007
1865 1.00007
1865.5 1.00007
1866 1.00007
1866.5 1.00007
1867 1.00007
1867.5 1.00007
1868 1.00007
1868.5 1.00007
1869 1.00007
1869.5 1.00007
1870 1.00007
1870.5 1.00007
1871 1.00007
1871.5 1.00007
1872 1.00007
1872.5 1.00007
1873 1.00007
1873.5 1.00007
1874 1.00007
1874.5 1.00007
1875 1.00007
1875.5 1.00007
1876 1.00007
1876.5 1.00007
1877 1.00007
1877.5 1.00007
1878 1.00007
1878.5 1.00007
1879 1.00007
1879.5 1.00007
1880 1.00007
1880.5 1.00007
1881 1.00007
1881.5 1.00007
1882 1.00007
1882.5 1.00007
1883 1.00007
1883.5 1.00007
1884 1.00006
1884.5 1.00006
1885 1.00006
1885.5 1.00006
1886 1.00006
1886.5 1.00006
1887 1.00006
1887.5 1.00006
1888 1.00006
1888.5 1.00006
1889 1.00006
1889.5 1.00006
1890 1.00006
1890.5 1.00006
1891 1.00006
1891.5 1.00006
1892 1.00006
1892.5 1.00006
1893 1.00006
1893.5 1.00006
1894 1.00006
1894.5 1.00006
1895 1.00006
1895.5 1.00006
1896 1.00006
1896.5 1.00006
1897 1.00006
1897.5 1.00006
1898 1.00006
1898.5 1.00006
1899 1.00006
1899.5 1.00006
1900 1.00006
1900.5 1.00006
1901 1.00006
1901.5 1.00006
1902 1.00006
1902.5 1.00006
1903 1.00006
1903.5 1.00006
1904 1.00006
1904.5 1.00006
1905 1.00006
1905.5 1.00006
1906 1.00006
1906.5 1.00006
1907 1.00006
1907.5 1.00006
1908 1.00006
1908.5 1.00006
1909 1.00006
1909.5 1.00006
1910 1.00006
1910.5 1.00006
1911 1.00006
1911.5 1.00006
1912 1.00006
1912.5 1.00006
1913 1.00006
1913.5 1.00006
1914 1.00006
1914.5 1.00006
1915 1.00006
1915.5 1.00006
1916 1.00006
1916.5 1.00006
1917 1.00006
1917.5 1.00006
1918 1.00006
1918.5 1.00006
1919 1.00006
1919.5 1.00006
1920 1.00006
1920.5 1.00006
1921 1.00006
1921.5 1.00006
1922 1.00006
1922.5 1.00006
1923 1.00006
1923.5 1.00006
1924 1.00006
1924.5 1.00006
1925 1.00006
1925.5 1.00006
1926 1.00006
1926.5 1.00006
1927 1.00006
1927.5 1.00006
1928 1.00006
1928.5 1.00006
1929 1.00006
1929.5 1.00006
1930 1.00006
1930.5 1.00006
1931 1.00006
1931.5 1.00006
1932 1.00006
1932.5 1.00006
1933 1.00006
1933.5 1.00006
1934 1.00006
1934.5 1.00006
1935 1.00006
1935.5 1.00006
1936 1.00006
1936.5 1.00006
1937 1.00006
1937.5 1.00006
1938 1.00006
1938.5 1.00006
1939 1.00006
1939.5 1.00006
1940 1.00006
1940.5 1.00006
1941 1.00006
1941.5 1.00006
1942 1.00006
1942.5 1.00006
1943 1.00006
1943.5 1.00006
1944 1.00006
1944.5 1.00006
1945 1.00006
1945.5 1.00006
1946 1.00006
1946.5 1.00006
1947 1.00006
1947.5 1.00006
1948 1.00006
1948.5 1.00006
1949 1.00006
1949.5 1.00006
1950 1.00006
1950.5 1.00006
1951 1.00006
1951.5 1.00006
1952 1.00006
1952.5 1.00006
1953 1.00006
1953.5 1.00006
1954 1.00006
1954.5 1.00006
1955 1.00006
1955.5 1.00006
1956 1.00006
1956.5 1.00006
1957 1.00006
1957.5 1.00006
1958 1.00006
1958.5 1.00006
1959 1.00006
1959.5 1.00006
1960 1.00006
1960.5 1.00006
1961 1.00006
1961.5 1.00006
1962 1.00006
1962.5 1.00006
1963 1.00006
1963.5 1.00006
1964 1.00006
1964.5 1.00005
1965 1.00005
1965.5 1.00005
1966 1.00005
1966.5 1.00005
1967 1.00005
1967.5 1.00005
1968 1.00005
1968.5 1.00005
1969 1.00005
1969.5 1.00005
1970 1.00005
1970.5 1.00005
1971 1.00005
1971.5 1.00005
1972 1.00005
1972.5 1.00005
1973 1.00005
1973.5 1.00005
1974 1.00005
1974.5 1.00005
1975 1.00005
1975.5 1.00005
1976 1.00005
1976.5 1.00005
1977 1.00005
1977.5 1.00005
1978 1.00005
1978.5 1.00005
1979 1.00005
1979.5 1.00005
1980 1.00005
1980.5 1.00005
1981 1.00005
1981.5 1.00005
1982 1.00005
1982.5 1.00005
1983 1.00005
1983.5 1.00005
1984 1.00005
1984.5 1.00005
1985 1.00005
1985.5 1.00005
1986 1.00005
1986.5 1.00005
1987 1.00005
1987.5 1.00005
1988 1.00005
1988.5 1.00005
1989 1.00005
1989.5 1.00005
1990 1.00005
1990.5 1.00005
1991 1.00005
1991.5 1.00005
1992 1.00005
1992.5 1.00005
1993 1.00005
1993.5 1.00005
1994 1.00005
1994.5 1.00005
1995 1.00005
1995.5 1.00005
1996 1.00005
1996.5 1.00005
1997 1.00005
1997.5 1.00005
1998 1.00005
1998.5 1.00005
1999 1.00005
1999.5 1.00005
