### FSI tabel with Verma Potential Triplet (2-Gauss potential) #####
# Weight # krel [MeV] 
0.5 3.31601
1 2.35104
1.5 2.50773
2 3.08397
2.5 2.80806
3 2.48595
3.5 2.47118
4 2.59053
4.5 2.70385
5 2.74356
5.5 2.71207
6 2.65176
6.5 2.60155
7 2.57782
7.5 2.57852
8 2.59324
8.5 2.61073
9 2.62309
9.5 2.62694
10 2.62267
10.5 2.61283
11 2.60049
11.5 2.58823
12 2.57765
12.5 2.56938
13 2.56333
13.5 2.55892
14 2.5554
14.5 2.55207
15 2.54837
15.5 2.54393
16 2.53861
16.5 2.53243
17 2.52551
17.5 2.51805
18 2.51024
18.5 2.50225
19 2.49422
19.5 2.48622
20 2.47831
20.5 2.47049
21 2.46273
21.5 2.455
22 2.44726
22.5 2.43947
23 2.43158
23.5 2.42358
24 2.41546
24.5 2.4072
25 2.3988
25.5 2.39028
26 2.38165
26.5 2.37291
27 2.3641
27.5 2.35521
28 2.34627
28.5 2.33728
29 2.32826
29.5 2.3192
30 2.31012
30.5 2.30101
31 2.29189
31.5 2.28274
32 2.27358
32.5 2.2644
33 2.2552
33.5 2.24599
34 2.23676
34.5 2.22752
35 2.21827
35.5 2.20901
36 2.19975
36.5 2.19048
37 2.18121
37.5 2.17195
38 2.16269
38.5 2.15343
39 2.14419
39.5 2.13496
40 2.12575
40.5 2.11656
41 2.10738
41.5 2.09823
42 2.0891
42.5 2.08
43 2.07093
43.5 2.06189
44 2.05288
44.5 2.0439
45 2.03495
45.5 2.02604
46 2.01717
46.5 2.00833
47 1.99953
47.5 1.99077
48 1.98205
48.5 1.97337
49 1.96474
49.5 1.95615
50 1.9476
50.5 1.9391
51 1.93064
51.5 1.92223
52 1.91387
52.5 1.90556
53 1.89729
53.5 1.88908
54 1.88091
54.5 1.87279
55 1.86473
55.5 1.85672
56 1.84876
56.5 1.84085
57 1.83299
57.5 1.82518
58 1.81743
58.5 1.80974
59 1.80209
59.5 1.7945
60 1.78696
60.5 1.77948
61 1.77205
61.5 1.76468
62 1.75736
62.5 1.75009
63 1.74288
63.5 1.73573
64 1.72862
64.5 1.72158
65 1.71458
65.5 1.70764
66 1.70076
66.5 1.69393
67 1.68715
67.5 1.68043
68 1.67376
68.5 1.66715
69 1.66058
69.5 1.65408
70 1.64762
70.5 1.64122
71 1.63487
71.5 1.62857
72 1.62233
72.5 1.61614
73 1.61
73.5 1.60391
74 1.59788
74.5 1.59189
75 1.58596
75.5 1.58007
76 1.57424
76.5 1.56846
77 1.56273
77.5 1.55705
78 1.55141
78.5 1.54583
79 1.54029
79.5 1.53481
80 1.52937
80.5 1.52398
81 1.51864
81.5 1.51334
82 1.5081
82.5 1.5029
83 1.49774
83.5 1.49263
84 1.48757
84.5 1.48255
85 1.47758
85.5 1.47266
86 1.46777
86.5 1.46294
87 1.45814
87.5 1.45339
88 1.44868
88.5 1.44402
89 1.4394
89.5 1.43482
90 1.43028
90.5 1.42579
91 1.42134
91.5 1.41692
92 1.41255
92.5 1.40822
93 1.40393
93.5 1.39968
94 1.39547
94.5 1.39129
95 1.38716
95.5 1.38307
96 1.37901
96.5 1.37499
97 1.37101
97.5 1.36707
98 1.36316
98.5 1.35929
99 1.35546
99.5 1.35166
100 1.3479
100.5 1.34417
101 1.34048
101.5 1.33683
102 1.33321
102.5 1.32962
103 1.32607
103.5 1.32255
104 1.31907
104.5 1.31561
105 1.3122
105.5 1.30881
106 1.30546
106.5 1.30214
107 1.29885
107.5 1.29559
108 1.29236
108.5 1.28917
109 1.286
109.5 1.28287
110 1.27977
110.5 1.27669
111 1.27365
111.5 1.27064
112 1.26765
112.5 1.26469
113 1.26177
113.5 1.25887
114 1.256
114.5 1.25316
115 1.25034
115.5 1.24755
116 1.2448
116.5 1.24206
117 1.23936
117.5 1.23668
118 1.23402
118.5 1.2314
119 1.2288
119.5 1.22622
120 1.22367
120.5 1.22115
121 1.21865
121.5 1.21617
122 1.21372
122.5 1.2113
123 1.20889
123.5 1.20652
124 1.20416
124.5 1.20183
125 1.19952
125.5 1.19724
126 1.19498
126.5 1.19274
127 1.19052
127.5 1.18833
128 1.18616
128.5 1.18401
129 1.18188
129.5 1.17977
130 1.17769
130.5 1.17562
131 1.17358
131.5 1.17155
132 1.16955
132.5 1.16757
133 1.16561
133.5 1.16367
134 1.16174
134.5 1.15984
135 1.15796
135.5 1.15609
136 1.15425
136.5 1.15242
137 1.15062
137.5 1.14883
138 1.14706
138.5 1.14531
139 1.14357
139.5 1.14186
140 1.14016
140.5 1.13848
141 1.13682
141.5 1.13517
142 1.13354
142.5 1.13193
143 1.13034
143.5 1.12876
144 1.1272
144.5 1.12565
145 1.12413
145.5 1.12261
146 1.12112
146.5 1.11964
147 1.11817
147.5 1.11672
148 1.11529
148.5 1.11387
149 1.11246
149.5 1.11107
150 1.1097
150.5 1.10834
151 1.107
151.5 1.10567
152 1.10435
152.5 1.10305
153 1.10176
153.5 1.10049
154 1.09923
154.5 1.09798
155 1.09675
155.5 1.09553
156 1.09432
156.5 1.09313
157 1.09195
157.5 1.09078
158 1.08962
158.5 1.08848
159 1.08735
159.5 1.08624
160 1.08513
160.5 1.08404
161 1.08296
161.5 1.08189
162 1.08083
162.5 1.07979
163 1.07876
163.5 1.07773
164 1.07672
164.5 1.07573
165 1.07474
165.5 1.07376
166 1.0728
166.5 1.07184
167 1.0709
167.5 1.06997
168 1.06904
168.5 1.06813
169 1.06723
169.5 1.06634
170 1.06546
170.5 1.06459
171 1.06373
171.5 1.06288
172 1.06204
172.5 1.0612
173 1.06038
173.5 1.05957
174 1.05877
174.5 1.05798
175 1.05719
175.5 1.05642
176 1.05565
176.5 1.05489
177 1.05415
177.5 1.05341
178 1.05268
178.5 1.05196
179 1.05125
179.5 1.05054
180 1.04985
180.5 1.04916
181 1.04848
181.5 1.04781
182 1.04715
182.5 1.04649
183 1.04584
183.5 1.04521
184 1.04457
184.5 1.04395
185 1.04334
185.5 1.04273
186 1.04213
186.5 1.04153
187 1.04095
187.5 1.04037
188 1.0398
188.5 1.03923
189 1.03868
189.5 1.03813
190 1.03758
190.5 1.03705
191 1.03652
191.5 1.036
192 1.03548
192.5 1.03497
193 1.03447
193.5 1.03397
194 1.03348
194.5 1.033
195 1.03252
195.5 1.03205
196 1.03159
196.5 1.03113
197 1.03067
197.5 1.03023
198 1.02979
198.5 1.02935
199 1.02892
199.5 1.0285
200 1.02808
200.5 1.02767
201 1.02726
201.5 1.02686
202 1.02646
202.5 1.02607
203 1.02569
203.5 1.02531
204 1.02493
204.5 1.02457
205 1.0242
205.5 1.02384
206 1.02349
206.5 1.02314
207 1.02279
207.5 1.02245
208 1.02212
208.5 1.02179
209 1.02146
209.5 1.02114
210 1.02083
210.5 1.02052
211 1.02021
211.5 1.01991
212 1.01961
212.5 1.01932
213 1.01903
213.5 1.01874
214 1.01846
214.5 1.01818
215 1.01791
215.5 1.01764
216 1.01738
216.5 1.01712
217 1.01686
217.5 1.01661
218 1.01636
218.5 1.01611
219 1.01587
219.5 1.01564
220 1.0154
220.5 1.01517
221 1.01495
221.5 1.01472
222 1.0145
222.5 1.01429
223 1.01408
223.5 1.01387
224 1.01366
224.5 1.01346
225 1.01326
225.5 1.01307
226 1.01287
226.5 1.01268
227 1.0125
227.5 1.01232
228 1.01214
228.5 1.01196
229 1.01179
229.5 1.01161
230 1.01145
230.5 1.01128
231 1.01112
231.5 1.01096
232 1.0108
232.5 1.01065
233 1.0105
233.5 1.01035
234 1.01021
234.5 1.01006
235 1.00992
235.5 1.00979
236 1.00965
236.5 1.00952
237 1.00939
237.5 1.00926
238 1.00914
238.5 1.00901
239 1.00889
239.5 1.00878
240 1.00866
240.5 1.00855
241 1.00844
241.5 1.00833
242 1.00822
242.5 1.00812
243 1.00801
243.5 1.00791
244 1.00782
244.5 1.00772
245 1.00763
245.5 1.00753
246 1.00744
246.5 1.00736
247 1.00727
247.5 1.00719
248 1.0071
248.5 1.00702
249 1.00695
249.5 1.00687
250 1.00679
250.5 1.00672
251 1.00665
251.5 1.00658
252 1.00651
252.5 1.00644
253 1.00638
253.5 1.00632
254 1.00626
254.5 1.0062
255 1.00614
255.5 1.00608
256 1.00603
256.5 1.00597
257 1.00592
257.5 1.00587
258 1.00582
258.5 1.00577
259 1.00573
259.5 1.00568
260 1.00564
260.5 1.00559
261 1.00555
261.5 1.00551
262 1.00547
262.5 1.00544
263 1.0054
263.5 1.00537
264 1.00533
264.5 1.0053
265 1.00527
265.5 1.00524
266 1.00521
266.5 1.00518
267 1.00516
267.5 1.00513
268 1.0051
268.5 1.00508
269 1.00506
269.5 1.00504
270 1.00502
270.5 1.005
271 1.00498
271.5 1.00496
272 1.00494
272.5 1.00493
273 1.00491
273.5 1.0049
274 1.00489
274.5 1.00487
275 1.00486
275.5 1.00485
276 1.00484
276.5 1.00483
277 1.00483
277.5 1.00482
278 1.00481
278.5 1.00481
279 1.0048
279.5 1.0048
280 1.00479
280.5 1.00479
281 1.00479
281.5 1.00479
282 1.00479
282.5 1.00479
283 1.00479
283.5 1.00479
284 1.00479
284.5 1.00479
285 1.00479
285.5 1.0048
286 1.0048
286.5 1.00481
287 1.00481
287.5 1.00482
288 1.00482
288.5 1.00483
289 1.00484
289.5 1.00484
290 1.00485
290.5 1.00486
291 1.00487
291.5 1.00488
292 1.00489
292.5 1.0049
293 1.00491
293.5 1.00492
294 1.00493
294.5 1.00494
295 1.00496
295.5 1.00497
296 1.00498
296.5 1.005
297 1.00501
297.5 1.00502
298 1.00504
298.5 1.00505
299 1.00507
299.5 1.00508
300 1.0051
300.5 1.00511
301 1.00513
301.5 1.00515
302 1.00516
302.5 1.00518
303 1.0052
303.5 1.00522
304 1.00523
304.5 1.00525
305 1.00527
305.5 1.00529
306 1.00531
306.5 1.00533
307 1.00534
307.5 1.00536
308 1.00538
308.5 1.0054
309 1.00542
309.5 1.00544
310 1.00546
310.5 1.00548
311 1.0055
311.5 1.00552
312 1.00554
312.5 1.00556
313 1.00558
313.5 1.00561
314 1.00563
314.5 1.00565
315 1.00567
315.5 1.00569
316 1.00571
316.5 1.00573
317 1.00575
317.5 1.00578
318 1.0058
318.5 1.00582
319 1.00584
319.5 1.00586
320 1.00588
320.5 1.00591
321 1.00593
321.5 1.00595
322 1.00597
322.5 1.00599
323 1.00602
323.5 1.00604
324 1.00606
324.5 1.00608
325 1.0061
325.5 1.00613
326 1.00615
326.5 1.00617
327 1.00619
327.5 1.00621
328 1.00624
328.5 1.00626
329 1.00628
329.5 1.0063
330 1.00632
330.5 1.00634
331 1.00637
331.5 1.00639
332 1.00641
332.5 1.00643
333 1.00645
333.5 1.00647
334 1.0065
334.5 1.00652
335 1.00654
335.5 1.00656
336 1.00658
336.5 1.0066
337 1.00662
337.5 1.00664
338 1.00666
338.5 1.00668
339 1.0067
339.5 1.00673
340 1.00675
340.5 1.00677
341 1.00679
341.5 1.00681
342 1.00683
342.5 1.00685
343 1.00687
343.5 1.00689
344 1.00691
344.5 1.00692
345 1.00694
345.5 1.00696
346 1.00698
346.5 1.007
347 1.00702
347.5 1.00704
348 1.00706
348.5 1.00708
349 1.00709
349.5 1.00711
350 1.00713
350.5 1.00715
351 1.00717
351.5 1.00718
352 1.0072
352.5 1.00722
353 1.00724
353.5 1.00725
354 1.00727
354.5 1.00729
355 1.0073
355.5 1.00732
356 1.00734
356.5 1.00735
357 1.00737
357.5 1.00738
358 1.0074
358.5 1.00742
359 1.00743
359.5 1.00745
360 1.00746
360.5 1.00748
361 1.00749
361.5 1.00751
362 1.00752
362.5 1.00754
363 1.00755
363.5 1.00756
364 1.00758
364.5 1.00759
365 1.0076
365.5 1.00762
366 1.00763
366.5 1.00764
367 1.00766
367.5 1.00767
368 1.00768
368.5 1.00769
369 1.00771
369.5 1.00772
370 1.00773
370.5 1.00774
371 1.00775
371.5 1.00777
372 1.00778
372.5 1.00779
373 1.0078
373.5 1.00781
374 1.00782
374.5 1.00783
375 1.00784
375.5 1.00785
376 1.00786
376.5 1.00787
377 1.00788
377.5 1.00789
378 1.0079
378.5 1.00791
379 1.00792
379.5 1.00793
380 1.00793
380.5 1.00794
381 1.00795
381.5 1.00796
382 1.00797
382.5 1.00797
383 1.00798
383.5 1.00799
384 1.008
384.5 1.008
385 1.00801
385.5 1.00802
386 1.00802
386.5 1.00803
387 1.00804
387.5 1.00804
388 1.00805
388.5 1.00805
389 1.00806
389.5 1.00806
390 1.00807
390.5 1.00807
391 1.00808
391.5 1.00808
392 1.00809
392.5 1.00809
393 1.0081
393.5 1.0081
394 1.0081
394.5 1.00811
395 1.00811
395.5 1.00812
396 1.00812
396.5 1.00812
397 1.00812
397.5 1.00813
398 1.00813
398.5 1.00813
399 1.00814
399.5 1.00814
400 1.00814
400.5 1.00814
401 1.00814
401.5 1.00814
402 1.00815
402.5 1.00815
403 1.00815
403.5 1.00815
404 1.00815
404.5 1.00815
405 1.00815
405.5 1.00815
406 1.00815
406.5 1.00815
407 1.00815
407.5 1.00815
408 1.00815
408.5 1.00815
409 1.00815
409.5 1.00815
410 1.00815
410.5 1.00815
411 1.00815
411.5 1.00815
412 1.00814
412.5 1.00814
413 1.00814
413.5 1.00814
414 1.00814
414.5 1.00813
415 1.00813
415.5 1.00813
416 1.00813
416.5 1.00812
417 1.00812
417.5 1.00812
418 1.00812
418.5 1.00811
419 1.00811
419.5 1.00811
420 1.0081
420.5 1.0081
421 1.0081
421.5 1.00809
422 1.00809
422.5 1.00808
423 1.00808
423.5 1.00807
424 1.00807
424.5 1.00807
425 1.00806
425.5 1.00806
426 1.00805
426.5 1.00805
427 1.00804
427.5 1.00804
428 1.00803
428.5 1.00802
429 1.00802
429.5 1.00801
430 1.00801
430.5 1.008
431 1.008
431.5 1.00799
432 1.00798
432.5 1.00798
433 1.00797
433.5 1.00796
434 1.00796
434.5 1.00795
435 1.00794
435.5 1.00794
436 1.00793
436.5 1.00792
437 1.00791
437.5 1.00791
438 1.0079
438.5 1.00789
439 1.00788
439.5 1.00788
440 1.00787
440.5 1.00786
441 1.00785
441.5 1.00784
442 1.00784
442.5 1.00783
443 1.00782
443.5 1.00781
444 1.0078
444.5 1.00779
445 1.00779
445.5 1.00778
446 1.00777
446.5 1.00776
447 1.00775
447.5 1.00774
448 1.00773
448.5 1.00772
449 1.00771
449.5 1.0077
450 1.00769
450.5 1.00768
451 1.00767
451.5 1.00766
452 1.00765
452.5 1.00765
453 1.00764
453.5 1.00763
454 1.00762
454.5 1.0076
455 1.00759
455.5 1.00758
456 1.00757
456.5 1.00756
457 1.00755
457.5 1.00754
458 1.00753
458.5 1.00752
459 1.00751
459.5 1.0075
460 1.00749
460.5 1.00748
461 1.00747
461.5 1.00746
462 1.00744
462.5 1.00743
463 1.00742
463.5 1.00741
464 1.0074
464.5 1.00739
465 1.00738
465.5 1.00737
466 1.00735
466.5 1.00734
467 1.00733
467.5 1.00732
468 1.00731
468.5 1.0073
469 1.00728
469.5 1.00727
470 1.00726
470.5 1.00725
471 1.00724
471.5 1.00722
472 1.00721
472.5 1.0072
473 1.00719
473.5 1.00718
474 1.00716
474.5 1.00715
475 1.00714
475.5 1.00713
476 1.00711
476.5 1.0071
477 1.00709
477.5 1.00708
478 1.00706
478.5 1.00705
479 1.00704
479.5 1.00703
480 1.00701
480.5 1.007
481 1.00699
481.5 1.00698
482 1.00696
482.5 1.00695
483 1.00694
483.5 1.00692
484 1.00691
484.5 1.0069
485 1.00688
485.5 1.00687
486 1.00686
486.5 1.00685
487 1.00683
487.5 1.00682
488 1.00681
488.5 1.00679
489 1.00678
489.5 1.00677
490 1.00675
490.5 1.00674
491 1.00673
491.5 1.00671
492 1.0067
492.5 1.00669
493 1.00667
493.5 1.00666
494 1.00665
494.5 1.00663
495 1.00662
495.5 1.00661
496 1.00659
496.5 1.00658
497 1.00657
497.5 1.00655
498 1.00654
498.5 1.00652
499 1.00651
499.5 1.0065
500 1.00648
500.5 1.00647
501 1.00646
501.5 1.00644
502 1.00643
502.5 1.00642
503 1.0064
503.5 1.00639
504 1.00638
504.5 1.00636
505 1.00635
505.5 1.00633
506 1.00632
506.5 1.00631
507 1.00629
507.5 1.00628
508 1.00627
508.5 1.00625
509 1.00624
509.5 1.00622
510 1.00621
510.5 1.0062
511 1.00618
511.5 1.00617
512 1.00616
512.5 1.00614
513 1.00613
513.5 1.00611
514 1.0061
514.5 1.00609
515 1.00607
515.5 1.00606
516 1.00605
516.5 1.00603
517 1.00602
517.5 1.006
518 1.00599
518.5 1.00598
519 1.00596
519.5 1.00595
520 1.00594
520.5 1.00592
521 1.00591
521.5 1.00589
522 1.00588
522.5 1.00587
523 1.00585
523.5 1.00584
524 1.00583
524.5 1.00581
525 1.0058
525.5 1.00578
526 1.00577
526.5 1.00576
527 1.00574
527.5 1.00573
528 1.00572
528.5 1.0057
529 1.00569
529.5 1.00568
530 1.00566
530.5 1.00565
531 1.00563
531.5 1.00562
532 1.00561
532.5 1.00559
533 1.00558
533.5 1.00557
534 1.00555
534.5 1.00554
535 1.00553
535.5 1.00551
536 1.0055
536.5 1.00549
537 1.00547
537.5 1.00546
538 1.00545
538.5 1.00543
539 1.00542
539.5 1.0054
540 1.00539
540.5 1.00538
541 1.00536
541.5 1.00535
542 1.00534
542.5 1.00532
543 1.00531
543.5 1.0053
544 1.00529
544.5 1.00527
545 1.00526
545.5 1.00525
546 1.00523
546.5 1.00522
547 1.00521
547.5 1.00519
548 1.00518
548.5 1.00517
549 1.00515
549.5 1.00514
550 1.00513
550.5 1.00511
551 1.0051
551.5 1.00509
552 1.00508
552.5 1.00506
553 1.00505
553.5 1.00504
554 1.00502
554.5 1.00501
555 1.005
555.5 1.00498
556 1.00497
556.5 1.00496
557 1.00495
557.5 1.00493
558 1.00492
558.5 1.00491
559 1.0049
559.5 1.00488
560 1.00487
560.5 1.00486
561 1.00484
561.5 1.00483
562 1.00482
562.5 1.00481
563 1.00479
563.5 1.00478
564 1.00477
564.5 1.00476
565 1.00474
565.5 1.00473
566 1.00472
566.5 1.00471
567 1.00469
567.5 1.00468
568 1.00467
568.5 1.00466
569 1.00465
569.5 1.00463
570 1.00462
570.5 1.00461
571 1.0046
571.5 1.00458
572 1.00457
572.5 1.00456
573 1.00455
573.5 1.00454
574 1.00452
574.5 1.00451
575 1.0045
575.5 1.00449
576 1.00448
576.5 1.00446
577 1.00445
577.5 1.00444
578 1.00443
578.5 1.00442
579 1.0044
579.5 1.00439
580 1.00438
580.5 1.00437
581 1.00436
581.5 1.00435
582 1.00433
582.5 1.00432
583 1.00431
583.5 1.0043
584 1.00429
584.5 1.00428
585 1.00426
585.5 1.00425
586 1.00424
586.5 1.00423
587 1.00422
587.5 1.00421
588 1.0042
588.5 1.00418
589 1.00417
589.5 1.00416
590 1.00415
590.5 1.00414
591 1.00413
591.5 1.00412
592 1.00411
592.5 1.00409
593 1.00408
593.5 1.00407
594 1.00406
594.5 1.00405
595 1.00404
595.5 1.00403
596 1.00402
596.5 1.00401
597 1.00399
597.5 1.00398
598 1.00397
598.5 1.00396
599 1.00395
599.5 1.00394
600 1.00393
600.5 1.00392
601 1.00391
601.5 1.0039
602 1.00389
602.5 1.00388
603 1.00387
603.5 1.00385
604 1.00384
604.5 1.00383
605 1.00382
605.5 1.00381
606 1.0038
606.5 1.00379
607 1.00378
607.5 1.00377
608 1.00376
608.5 1.00375
609 1.00374
609.5 1.00373
610 1.00372
610.5 1.00371
611 1.0037
611.5 1.00369
612 1.00368
612.5 1.00367
613 1.00366
613.5 1.00365
614 1.00364
614.5 1.00363
615 1.00362
615.5 1.00361
616 1.0036
616.5 1.00359
617 1.00358
617.5 1.00357
618 1.00356
618.5 1.00355
619 1.00354
619.5 1.00353
620 1.00352
620.5 1.00351
621 1.0035
621.5 1.00349
622 1.00348
622.5 1.00347
623 1.00346
623.5 1.00345
624 1.00344
624.5 1.00343
625 1.00342
625.5 1.00341
626 1.0034
626.5 1.00339
627 1.00339
627.5 1.00338
628 1.00337
628.5 1.00336
629 1.00335
629.5 1.00334
630 1.00333
630.5 1.00332
631 1.00331
631.5 1.0033
632 1.00329
632.5 1.00328
633 1.00327
633.5 1.00327
634 1.00326
634.5 1.00325
635 1.00324
635.5 1.00323
636 1.00322
636.5 1.00321
637 1.0032
637.5 1.00319
638 1.00318
638.5 1.00318
639 1.00317
639.5 1.00316
640 1.00315
640.5 1.00314
641 1.00313
641.5 1.00312
642 1.00311
642.5 1.00311
643 1.0031
643.5 1.00309
644 1.00308
644.5 1.00307
645 1.00306
645.5 1.00305
646 1.00305
646.5 1.00304
647 1.00303
647.5 1.00302
648 1.00301
648.5 1.003
649 1.003
649.5 1.00299
650 1.00298
650.5 1.00297
651 1.00296
651.5 1.00295
652 1.00295
652.5 1.00294
653 1.00293
653.5 1.00292
654 1.00291
654.5 1.00291
655 1.0029
655.5 1.00289
656 1.00288
656.5 1.00287
657 1.00287
657.5 1.00286
658 1.00285
658.5 1.00284
659 1.00283
659.5 1.00283
660 1.00282
660.5 1.00281
661 1.0028
661.5 1.00279
662 1.00279
662.5 1.00278
663 1.00277
663.5 1.00276
664 1.00276
664.5 1.00275
665 1.00274
665.5 1.00273
666 1.00273
666.5 1.00272
667 1.00271
667.5 1.0027
668 1.0027
668.5 1.00269
669 1.00268
669.5 1.00267
670 1.00267
670.5 1.00266
671 1.00265
671.5 1.00264
672 1.00264
672.5 1.00263
673 1.00262
673.5 1.00262
674 1.00261
674.5 1.0026
675 1.00259
675.5 1.00259
676 1.00258
676.5 1.00257
677 1.00256
677.5 1.00256
678 1.00255
678.5 1.00254
679 1.00254
679.5 1.00253
680 1.00252
680.5 1.00252
681 1.00251
681.5 1.0025
682 1.0025
682.5 1.00249
683 1.00248
683.5 1.00247
684 1.00247
684.5 1.00246
685 1.00245
685.5 1.00245
686 1.00244
686.5 1.00243
687 1.00243
687.5 1.00242
688 1.00241
688.5 1.00241
689 1.0024
689.5 1.00239
690 1.00239
690.5 1.00238
691 1.00237
691.5 1.00237
692 1.00236
692.5 1.00236
693 1.00235
693.5 1.00234
694 1.00234
694.5 1.00233
695 1.00232
695.5 1.00232
696 1.00231
696.5 1.0023
697 1.0023
697.5 1.00229
698 1.00229
698.5 1.00228
699 1.00227
699.5 1.00227
700 1.00226
700.5 1.00225
701 1.00225
701.5 1.00224
702 1.00224
702.5 1.00223
703 1.00222
703.5 1.00222
704 1.00221
704.5 1.00221
705 1.0022
705.5 1.00219
706 1.00219
706.5 1.00218
707 1.00218
707.5 1.00217
708 1.00216
708.5 1.00216
709 1.00215
709.5 1.00215
710 1.00214
710.5 1.00213
711 1.00213
711.5 1.00212
712 1.00212
712.5 1.00211
713 1.00211
713.5 1.0021
714 1.00209
714.5 1.00209
715 1.00208
715.5 1.00208
716 1.00207
716.5 1.00207
717 1.00206
717.5 1.00206
718 1.00205
718.5 1.00204
719 1.00204
719.5 1.00203
720 1.00203
720.5 1.00202
721 1.00202
721.5 1.00201
722 1.00201
722.5 1.002
723 1.002
723.5 1.00199
724 1.00198
724.5 1.00198
725 1.00197
725.5 1.00197
726 1.00196
726.5 1.00196
727 1.00195
727.5 1.00195
728 1.00194
728.5 1.00194
729 1.00193
729.5 1.00193
730 1.00192
730.5 1.00192
731 1.00191
731.5 1.00191
732 1.0019
732.5 1.0019
733 1.00189
733.5 1.00189
734 1.00188
734.5 1.00188
735 1.00187
735.5 1.00187
736 1.00186
736.5 1.00186
737 1.00185
737.5 1.00185
738 1.00184
738.5 1.00184
739 1.00183
739.5 1.00183
740 1.00182
740.5 1.00182
741 1.00181
741.5 1.00181
742 1.0018
742.5 1.0018
743 1.00179
743.5 1.00179
744 1.00178
744.5 1.00178
745 1.00177
745.5 1.00177
746 1.00176
746.5 1.00176
747 1.00176
747.5 1.00175
748 1.00175
748.5 1.00174
749 1.00174
749.5 1.00173
750 1.00173
750.5 1.00172
751 1.00172
751.5 1.00171
752 1.00171
752.5 1.00171
753 1.0017
753.5 1.0017
754 1.00169
754.5 1.00169
755 1.00168
755.5 1.00168
756 1.00167
756.5 1.00167
757 1.00167
757.5 1.00166
758 1.00166
758.5 1.00165
759 1.00165
759.5 1.00164
760 1.00164
760.5 1.00164
761 1.00163
761.5 1.00163
762 1.00162
762.5 1.00162
763 1.00161
763.5 1.00161
764 1.00161
764.5 1.0016
765 1.0016
765.5 1.00159
766 1.00159
766.5 1.00159
767 1.00158
767.5 1.00158
768 1.00157
768.5 1.00157
769 1.00156
769.5 1.00156
770 1.00156
770.5 1.00155
771 1.00155
771.5 1.00154
772 1.00154
772.5 1.00154
773 1.00153
773.5 1.00153
774 1.00152
774.5 1.00152
775 1.00152
775.5 1.00151
776 1.00151
776.5 1.00151
777 1.0015
777.5 1.0015
778 1.00149
778.5 1.00149
779 1.00149
779.5 1.00148
780 1.00148
780.5 1.00147
781 1.00147
781.5 1.00147
782 1.00146
782.5 1.00146
783 1.00146
783.5 1.00145
784 1.00145
784.5 1.00144
785 1.00144
785.5 1.00144
786 1.00143
786.5 1.00143
787 1.00143
787.5 1.00142
788 1.00142
788.5 1.00142
789 1.00141
789.5 1.00141
790 1.0014
790.5 1.0014
791 1.0014
791.5 1.00139
792 1.00139
792.5 1.00139
793 1.00138
793.5 1.00138
794 1.00138
794.5 1.00137
795 1.00137
795.5 1.00137
796 1.00136
796.5 1.00136
797 1.00136
797.5 1.00135
798 1.00135
798.5 1.00135
799 1.00134
799.5 1.00134
800 1.00134
800.5 1.00133
801 1.00133
801.5 1.00133
802 1.00132
802.5 1.00132
803 1.00132
803.5 1.00131
804 1.00131
804.5 1.00131
805 1.0013
805.5 1.0013
806 1.0013
806.5 1.00129
807 1.00129
807.5 1.00129
808 1.00128
808.5 1.00128
809 1.00128
809.5 1.00127
810 1.00127
810.5 1.00127
811 1.00126
811.5 1.00126
812 1.00126
812.5 1.00125
813 1.00125
813.5 1.00125
814 1.00124
814.5 1.00124
815 1.00124
815.5 1.00124
816 1.00123
816.5 1.00123
817 1.00123
817.5 1.00122
818 1.00122
818.5 1.00122
819 1.00121
819.5 1.00121
820 1.00121
820.5 1.00121
821 1.0012
821.5 1.0012
822 1.0012
822.5 1.00119
823 1.00119
823.5 1.00119
824 1.00118
824.5 1.00118
825 1.00118
825.5 1.00118
826 1.00117
826.5 1.00117
827 1.00117
827.5 1.00116
828 1.00116
828.5 1.00116
829 1.00116
829.5 1.00115
830 1.00115
830.5 1.00115
831 1.00114
831.5 1.00114
832 1.00114
832.5 1.00114
833 1.00113
833.5 1.00113
834 1.00113
834.5 1.00113
835 1.00112
835.5 1.00112
836 1.00112
836.5 1.00111
837 1.00111
837.5 1.00111
838 1.00111
838.5 1.0011
839 1.0011
839.5 1.0011
840 1.0011
840.5 1.00109
841 1.00109
841.5 1.00109
842 1.00109
842.5 1.00108
843 1.00108
843.5 1.00108
844 1.00107
844.5 1.00107
845 1.00107
845.5 1.00107
846 1.00106
846.5 1.00106
847 1.00106
847.5 1.00106
848 1.00105
848.5 1.00105
849 1.00105
849.5 1.00105
850 1.00104
850.5 1.00104
851 1.00104
851.5 1.00104
852 1.00103
852.5 1.00103
853 1.00103
853.5 1.00103
854 1.00102
854.5 1.00102
855 1.00102
855.5 1.00102
856 1.00101
856.5 1.00101
857 1.00101
857.5 1.00101
858 1.00101
858.5 1.001
859 1.001
859.5 1.001
860 1.001
860.5 1.00099
861 1.00099
861.5 1.00099
862 1.00099
862.5 1.00098
863 1.00098
863.5 1.00098
864 1.00098
864.5 1.00097
865 1.00097
865.5 1.00097
866 1.00097
866.5 1.00097
867 1.00096
867.5 1.00096
868 1.00096
868.5 1.00096
869 1.00095
869.5 1.00095
870 1.00095
870.5 1.00095
871 1.00095
871.5 1.00094
872 1.00094
872.5 1.00094
873 1.00094
873.5 1.00093
874 1.00093
874.5 1.00093
875 1.00093
875.5 1.00093
876 1.00092
876.5 1.00092
877 1.00092
877.5 1.00092
878 1.00091
878.5 1.00091
879 1.00091
879.5 1.00091
880 1.00091
880.5 1.0009
881 1.0009
881.5 1.0009
882 1.0009
882.5 1.0009
883 1.00089
883.5 1.00089
884 1.00089
884.5 1.00089
885 1.00089
885.5 1.00088
886 1.00088
886.5 1.00088
887 1.00088
887.5 1.00088
888 1.00087
888.5 1.00087
889 1.00087
889.5 1.00087
890 1.00087
890.5 1.00086
891 1.00086
891.5 1.00086
892 1.00086
892.5 1.00086
893 1.00085
893.5 1.00085
894 1.00085
894.5 1.00085
895 1.00085
895.5 1.00084
896 1.00084
896.5 1.00084
897 1.00084
897.5 1.00084
898 1.00083
898.5 1.00083
899 1.00083
899.5 1.00083
900 1.00083
900.5 1.00083
901 1.00082
901.5 1.00082
902 1.00082
902.5 1.00082
903 1.00082
903.5 1.00081
904 1.00081
904.5 1.00081
905 1.00081
905.5 1.00081
906 1.0008
906.5 1.0008
907 1.0008
907.5 1.0008
908 1.0008
908.5 1.0008
909 1.00079
909.5 1.00079
910 1.00079
910.5 1.00079
911 1.00079
911.5 1.00079
912 1.00078
912.5 1.00078
913 1.00078
913.5 1.00078
914 1.00078
914.5 1.00077
915 1.00077
915.5 1.00077
916 1.00077
916.5 1.00077
917 1.00077
917.5 1.00076
918 1.00076
918.5 1.00076
919 1.00076
919.5 1.00076
920 1.00076
920.5 1.00075
921 1.00075
921.5 1.00075
922 1.00075
922.5 1.00075
923 1.00075
923.5 1.00074
924 1.00074
924.5 1.00074
925 1.00074
925.5 1.00074
926 1.00074
926.5 1.00073
927 1.00073
927.5 1.00073
928 1.00073
928.5 1.00073
929 1.00073
929.5 1.00072
930 1.00072
930.5 1.00072
931 1.00072
931.5 1.00072
932 1.00072
932.5 1.00072
933 1.00071
933.5 1.00071
934 1.00071
934.5 1.00071
935 1.00071
935.5 1.00071
936 1.0007
936.5 1.0007
937 1.0007
937.5 1.0007
938 1.0007
938.5 1.0007
939 1.0007
939.5 1.00069
940 1.00069
940.5 1.00069
941 1.00069
941.5 1.00069
942 1.00069
942.5 1.00068
943 1.00068
943.5 1.00068
944 1.00068
944.5 1.00068
945 1.00068
945.5 1.00068
946 1.00067
946.5 1.00067
947 1.00067
947.5 1.00067
948 1.00067
948.5 1.00067
949 1.00067
949.5 1.00066
950 1.00066
950.5 1.00066
951 1.00066
951.5 1.00066
952 1.00066
952.5 1.00066
953 1.00065
953.5 1.00065
954 1.00065
954.5 1.00065
955 1.00065
955.5 1.00065
956 1.00065
956.5 1.00064
957 1.00064
957.5 1.00064
958 1.00064
958.5 1.00064
959 1.00064
959.5 1.00064
960 1.00063
960.5 1.00063
961 1.00063
961.5 1.00063
962 1.00063
962.5 1.00063
963 1.00063
963.5 1.00063
964 1.00062
964.5 1.00062
965 1.00062
965.5 1.00062
966 1.00062
966.5 1.00062
967 1.00062
967.5 1.00061
968 1.00061
968.5 1.00061
969 1.00061
969.5 1.00061
970 1.00061
970.5 1.00061
971 1.00061
971.5 1.0006
972 1.0006
972.5 1.0006
973 1.0006
973.5 1.0006
974 1.0006
974.5 1.0006
975 1.0006
975.5 1.00059
976 1.00059
976.5 1.00059
977 1.00059
977.5 1.00059
978 1.00059
978.5 1.00059
979 1.00059
979.5 1.00058
980 1.00058
980.5 1.00058
981 1.00058
981.5 1.00058
982 1.00058
982.5 1.00058
983 1.00058
983.5 1.00057
984 1.00057
984.5 1.00057
985 1.00057
985.5 1.00057
986 1.00057
986.5 1.00057
987 1.00057
987.5 1.00057
988 1.00056
988.5 1.00056
989 1.00056
989.5 1.00056
990 1.00056
990.5 1.00056
991 1.00056
991.5 1.00056
992 1.00055
992.5 1.00055
993 1.00055
993.5 1.00055
994 1.00055
994.5 1.00055
995 1.00055
995.5 1.00055
996 1.00055
996.5 1.00054
997 1.00054
997.5 1.00054
998 1.00054
998.5 1.00054
999 1.00054
999.5 1.00054
1000 1.00054
1000.5 1.00054
1001 1.00053
1001.5 1.00053
1002 1.00053
1002.5 1.00053
1003 1.00053
1003.5 1.00053
1004 1.00053
1004.5 1.00053
1005 1.00053
1005.5 1.00053
1006 1.00052
1006.5 1.00052
1007 1.00052
1007.5 1.00052
1008 1.00052
1008.5 1.00052
1009 1.00052
1009.5 1.00052
1010 1.00052
1010.5 1.00051
1011 1.00051
1011.5 1.00051
1012 1.00051
1012.5 1.00051
1013 1.00051
1013.5 1.00051
1014 1.00051
1014.5 1.00051
1015 1.00051
1015.5 1.0005
1016 1.0005
1016.5 1.0005
1017 1.0005
1017.5 1.0005
1018 1.0005
1018.5 1.0005
1019 1.0005
1019.5 1.0005
1020 1.0005
1020.5 1.00049
1021 1.00049
1021.5 1.00049
1022 1.00049
1022.5 1.00049
1023 1.00049
1023.5 1.00049
1024 1.00049
1024.5 1.00049
1025 1.00049
1025.5 1.00048
1026 1.00048
1026.5 1.00048
1027 1.00048
1027.5 1.00048
1028 1.00048
1028.5 1.00048
1029 1.00048
1029.5 1.00048
1030 1.00048
1030.5 1.00047
1031 1.00047
1031.5 1.00047
1032 1.00047
1032.5 1.00047
1033 1.00047
1033.5 1.00047
1034 1.00047
1034.5 1.00047
1035 1.00047
1035.5 1.00047
1036 1.00046
1036.5 1.00046
1037 1.00046
1037.5 1.00046
1038 1.00046
1038.5 1.00046
1039 1.00046
1039.5 1.00046
1040 1.00046
1040.5 1.00046
1041 1.00046
1041.5 1.00045
1042 1.00045
1042.5 1.00045
1043 1.00045
1043.5 1.00045
1044 1.00045
1044.5 1.00045
1045 1.00045
1045.5 1.00045
1046 1.00045
1046.5 1.00045
1047 1.00044
1047.5 1.00044
1048 1.00044
1048.5 1.00044
1049 1.00044
1049.5 1.00044
1050 1.00044
1050.5 1.00044
1051 1.00044
1051.5 1.00044
1052 1.00044
1052.5 1.00044
1053 1.00043
1053.5 1.00043
1054 1.00043
1054.5 1.00043
1055 1.00043
1055.5 1.00043
1056 1.00043
1056.5 1.00043
1057 1.00043
1057.5 1.00043
1058 1.00043
1058.5 1.00043
1059 1.00042
1059.5 1.00042
1060 1.00042
1060.5 1.00042
1061 1.00042
1061.5 1.00042
1062 1.00042
1062.5 1.00042
1063 1.00042
1063.5 1.00042
1064 1.00042
1064.5 1.00042
1065 1.00041
1065.5 1.00041
1066 1.00041
1066.5 1.00041
1067 1.00041
1067.5 1.00041
1068 1.00041
1068.5 1.00041
1069 1.00041
1069.5 1.00041
1070 1.00041
1070.5 1.00041
1071 1.00041
1071.5 1.0004
1072 1.0004
1072.5 1.0004
1073 1.0004
1073.5 1.0004
1074 1.0004
1074.5 1.0004
1075 1.0004
1075.5 1.0004
1076 1.0004
1076.5 1.0004
1077 1.0004
1077.5 1.0004
1078 1.00039
1078.5 1.00039
1079 1.00039
1079.5 1.00039
1080 1.00039
1080.5 1.00039
1081 1.00039
1081.5 1.00039
1082 1.00039
1082.5 1.00039
1083 1.00039
1083.5 1.00039
1084 1.00039
1084.5 1.00039
1085 1.00038
1085.5 1.00038
1086 1.00038
1086.5 1.00038
1087 1.00038
1087.5 1.00038
1088 1.00038
1088.5 1.00038
1089 1.00038
1089.5 1.00038
1090 1.00038
1090.5 1.00038
1091 1.00038
1091.5 1.00038
1092 1.00037
1092.5 1.00037
1093 1.00037
1093.5 1.00037
1094 1.00037
1094.5 1.00037
1095 1.00037
1095.5 1.00037
1096 1.00037
1096.5 1.00037
1097 1.00037
1097.5 1.00037
1098 1.00037
1098.5 1.00037
1099 1.00036
1099.5 1.00036
1100 1.00036
1100.5 1.00036
1101 1.00036
1101.5 1.00036
1102 1.00036
1102.5 1.00036
1103 1.00036
1103.5 1.00036
1104 1.00036
1104.5 1.00036
1105 1.00036
1105.5 1.00036
1106 1.00036
1106.5 1.00035
1107 1.00035
1107.5 1.00035
1108 1.00035
1108.5 1.00035
1109 1.00035
1109.5 1.00035
1110 1.00035
1110.5 1.00035
1111 1.00035
1111.5 1.00035
1112 1.00035
1112.5 1.00035
1113 1.00035
1113.5 1.00035
1114 1.00035
1114.5 1.00034
1115 1.00034
1115.5 1.00034
1116 1.00034
1116.5 1.00034
1117 1.00034
1117.5 1.00034
1118 1.00034
1118.5 1.00034
1119 1.00034
1119.5 1.00034
1120 1.00034
1120.5 1.00034
1121 1.00034
1121.5 1.00034
1122 1.00034
1122.5 1.00033
1123 1.00033
1123.5 1.00033
1124 1.00033
1124.5 1.00033
1125 1.00033
1125.5 1.00033
1126 1.00033
1126.5 1.00033
1127 1.00033
1127.5 1.00033
1128 1.00033
1128.5 1.00033
1129 1.00033
1129.5 1.00033
1130 1.00033
1130.5 1.00033
1131 1.00032
1131.5 1.00032
1132 1.00032
1132.5 1.00032
1133 1.00032
1133.5 1.00032
1134 1.00032
1134.5 1.00032
1135 1.00032
1135.5 1.00032
1136 1.00032
1136.5 1.00032
1137 1.00032
1137.5 1.00032
1138 1.00032
1138.5 1.00032
1139 1.00032
1139.5 1.00031
1140 1.00031
1140.5 1.00031
1141 1.00031
1141.5 1.00031
1142 1.00031
1142.5 1.00031
1143 1.00031
1143.5 1.00031
1144 1.00031
1144.5 1.00031
1145 1.00031
1145.5 1.00031
1146 1.00031
1146.5 1.00031
1147 1.00031
1147.5 1.00031
1148 1.00031
1148.5 1.0003
1149 1.0003
1149.5 1.0003
1150 1.0003
1150.5 1.0003
1151 1.0003
1151.5 1.0003
1152 1.0003
1152.5 1.0003
1153 1.0003
1153.5 1.0003
1154 1.0003
1154.5 1.0003
1155 1.0003
1155.5 1.0003
1156 1.0003
1156.5 1.0003
1157 1.0003
1157.5 1.0003
1158 1.00029
1158.5 1.00029
1159 1.00029
1159.5 1.00029
1160 1.00029
1160.5 1.00029
1161 1.00029
1161.5 1.00029
1162 1.00029
1162.5 1.00029
1163 1.00029
1163.5 1.00029
1164 1.00029
1164.5 1.00029
1165 1.00029
1165.5 1.00029
1166 1.00029
1166.5 1.00029
1167 1.00029
1167.5 1.00029
1168 1.00028
1168.5 1.00028
1169 1.00028
1169.5 1.00028
1170 1.00028
1170.5 1.00028
1171 1.00028
1171.5 1.00028
1172 1.00028
1172.5 1.00028
1173 1.00028
1173.5 1.00028
1174 1.00028
1174.5 1.00028
1175 1.00028
1175.5 1.00028
1176 1.00028
1176.5 1.00028
1177 1.00028
1177.5 1.00028
1178 1.00027
1178.5 1.00027
1179 1.00027
1179.5 1.00027
1180 1.00027
1180.5 1.00027
1181 1.00027
1181.5 1.00027
1182 1.00027
1182.5 1.00027
1183 1.00027
1183.5 1.00027
1184 1.00027
1184.5 1.00027
1185 1.00027
1185.5 1.00027
1186 1.00027
1186.5 1.00027
1187 1.00027
1187.5 1.00027
1188 1.00027
1188.5 1.00027
1189 1.00026
1189.5 1.00026
1190 1.00026
1190.5 1.00026
1191 1.00026
1191.5 1.00026
1192 1.00026
1192.5 1.00026
1193 1.00026
1193.5 1.00026
1194 1.00026
1194.5 1.00026
1195 1.00026
1195.5 1.00026
1196 1.00026
1196.5 1.00026
1197 1.00026
1197.5 1.00026
1198 1.00026
1198.5 1.00026
1199 1.00026
1199.5 1.00026
1200 1.00025
1200.5 1.00025
1201 1.00025
1201.5 1.00025
1202 1.00025
1202.5 1.00025
1203 1.00025
1203.5 1.00025
1204 1.00025
1204.5 1.00025
1205 1.00025
1205.5 1.00025
1206 1.00025
1206.5 1.00025
1207 1.00025
1207.5 1.00025
1208 1.00025
1208.5 1.00025
1209 1.00025
1209.5 1.00025
1210 1.00025
1210.5 1.00025
1211 1.00025
1211.5 1.00025
1212 1.00024
1212.5 1.00024
1213 1.00024
1213.5 1.00024
1214 1.00024
1214.5 1.00024
1215 1.00024
1215.5 1.00024
1216 1.00024
1216.5 1.00024
1217 1.00024
1217.5 1.00024
1218 1.00024
1218.5 1.00024
1219 1.00024
1219.5 1.00024
1220 1.00024
1220.5 1.00024
1221 1.00024
1221.5 1.00024
1222 1.00024
1222.5 1.00024
1223 1.00024
1223.5 1.00024
1224 1.00024
1224.5 1.00023
1225 1.00023
1225.5 1.00023
1226 1.00023
1226.5 1.00023
1227 1.00023
1227.5 1.00023
1228 1.00023
1228.5 1.00023
1229 1.00023
1229.5 1.00023
1230 1.00023
1230.5 1.00023
1231 1.00023
1231.5 1.00023
1232 1.00023
1232.5 1.00023
1233 1.00023
1233.5 1.00023
1234 1.00023
1234.5 1.00023
1235 1.00023
1235.5 1.00023
1236 1.00023
1236.5 1.00023
1237 1.00023
1237.5 1.00022
1238 1.00022
1238.5 1.00022
1239 1.00022
1239.5 1.00022
1240 1.00022
1240.5 1.00022
1241 1.00022
1241.5 1.00022
1242 1.00022
1242.5 1.00022
1243 1.00022
1243.5 1.00022
1244 1.00022
1244.5 1.00022
1245 1.00022
1245.5 1.00022
1246 1.00022
1246.5 1.00022
1247 1.00022
1247.5 1.00022
1248 1.00022
1248.5 1.00022
1249 1.00022
1249.5 1.00022
1250 1.00022
1250.5 1.00022
1251 1.00022
1251.5 1.00021
1252 1.00021
1252.5 1.00021
1253 1.00021
1253.5 1.00021
1254 1.00021
1254.5 1.00021
1255 1.00021
1255.5 1.00021
1256 1.00021
1256.5 1.00021
1257 1.00021
1257.5 1.00021
1258 1.00021
1258.5 1.00021
1259 1.00021
1259.5 1.00021
1260 1.00021
1260.5 1.00021
1261 1.00021
1261.5 1.00021
1262 1.00021
1262.5 1.00021
1263 1.00021
1263.5 1.00021
1264 1.00021
1264.5 1.00021
1265 1.00021
1265.5 1.00021
1266 1.0002
1266.5 1.0002
1267 1.0002
1267.5 1.0002
1268 1.0002
1268.5 1.0002
1269 1.0002
1269.5 1.0002
1270 1.0002
1270.5 1.0002
1271 1.0002
1271.5 1.0002
1272 1.0002
1272.5 1.0002
1273 1.0002
1273.5 1.0002
1274 1.0002
1274.5 1.0002
1275 1.0002
1275.5 1.0002
1276 1.0002
1276.5 1.0002
1277 1.0002
1277.5 1.0002
1278 1.0002
1278.5 1.0002
1279 1.0002
1279.5 1.0002
1280 1.0002
1280.5 1.0002
1281 1.0002
1281.5 1.0002
1282 1.00019
1282.5 1.00019
1283 1.00019
1283.5 1.00019
1284 1.00019
1284.5 1.00019
1285 1.00019
1285.5 1.00019
1286 1.00019
1286.5 1.00019
1287 1.00019
1287.5 1.00019
1288 1.00019
1288.5 1.00019
1289 1.00019
1289.5 1.00019
1290 1.00019
1290.5 1.00019
1291 1.00019
1291.5 1.00019
1292 1.00019
1292.5 1.00019
1293 1.00019
1293.5 1.00019
1294 1.00019
1294.5 1.00019
1295 1.00019
1295.5 1.00019
1296 1.00019
1296.5 1.00019
1297 1.00019
1297.5 1.00019
1298 1.00019
1298.5 1.00018
1299 1.00018
1299.5 1.00018
1300 1.00018
1300.5 1.00018
1301 1.00018
1301.5 1.00018
1302 1.00018
1302.5 1.00018
1303 1.00018
1303.5 1.00018
1304 1.00018
1304.5 1.00018
1305 1.00018
1305.5 1.00018
1306 1.00018
1306.5 1.00018
1307 1.00018
1307.5 1.00018
1308 1.00018
1308.5 1.00018
1309 1.00018
1309.5 1.00018
1310 1.00018
1310.5 1.00018
1311 1.00018
1311.5 1.00018
1312 1.00018
1312.5 1.00018
1313 1.00018
1313.5 1.00018
1314 1.00018
1314.5 1.00018
1315 1.00018
1315.5 1.00018
1316 1.00018
1316.5 1.00017
1317 1.00017
1317.5 1.00017
1318 1.00017
1318.5 1.00017
1319 1.00017
1319.5 1.00017
1320 1.00017
1320.5 1.00017
1321 1.00017
1321.5 1.00017
1322 1.00017
1322.5 1.00017
1323 1.00017
1323.5 1.00017
1324 1.00017
1324.5 1.00017
1325 1.00017
1325.5 1.00017
1326 1.00017
1326.5 1.00017
1327 1.00017
1327.5 1.00017
1328 1.00017
1328.5 1.00017
1329 1.00017
1329.5 1.00017
1330 1.00017
1330.5 1.00017
1331 1.00017
1331.5 1.00017
1332 1.00017
1332.5 1.00017
1333 1.00017
1333.5 1.00017
1334 1.00017
1334.5 1.00017
1335 1.00017
1335.5 1.00016
1336 1.00016
1336.5 1.00016
1337 1.00016
1337.5 1.00016
1338 1.00016
1338.5 1.00016
1339 1.00016
1339.5 1.00016
1340 1.00016
1340.5 1.00016
1341 1.00016
1341.5 1.00016
1342 1.00016
1342.5 1.00016
1343 1.00016
1343.5 1.00016
1344 1.00016
1344.5 1.00016
1345 1.00016
1345.5 1.00016
1346 1.00016
1346.5 1.00016
1347 1.00016
1347.5 1.00016
1348 1.00016
1348.5 1.00016
1349 1.00016
1349.5 1.00016
1350 1.00016
1350.5 1.00016
1351 1.00016
1351.5 1.00016
1352 1.00016
1352.5 1.00016
1353 1.00016
1353.5 1.00016
1354 1.00016
1354.5 1.00016
1355 1.00016
1355.5 1.00016
1356 1.00016
1356.5 1.00015
1357 1.00015
1357.5 1.00015
1358 1.00015
1358.5 1.00015
1359 1.00015
1359.5 1.00015
1360 1.00015
1360.5 1.00015
1361 1.00015
1361.5 1.00015
1362 1.00015
1362.5 1.00015
1363 1.00015
1363.5 1.00015
1364 1.00015
1364.5 1.00015
1365 1.00015
1365.5 1.00015
1366 1.00015
1366.5 1.00015
1367 1.00015
1367.5 1.00015
1368 1.00015
1368.5 1.00015
1369 1.00015
1369.5 1.00015
1370 1.00015
1370.5 1.00015
1371 1.00015
1371.5 1.00015
1372 1.00015
1372.5 1.00015
1373 1.00015
1373.5 1.00015
1374 1.00015
1374.5 1.00015
1375 1.00015
1375.5 1.00015
1376 1.00015
1376.5 1.00015
1377 1.00015
1377.5 1.00015
1378 1.00015
1378.5 1.00015
1379 1.00014
1379.5 1.00014
1380 1.00014
1380.5 1.00014
1381 1.00014
1381.5 1.00014
1382 1.00014
1382.5 1.00014
1383 1.00014
1383.5 1.00014
1384 1.00014
1384.5 1.00014
1385 1.00014
1385.5 1.00014
1386 1.00014
1386.5 1.00014
1387 1.00014
1387.5 1.00014
1388 1.00014
1388.5 1.00014
1389 1.00014
1389.5 1.00014
1390 1.00014
1390.5 1.00014
1391 1.00014
1391.5 1.00014
1392 1.00014
1392.5 1.00014
1393 1.00014
1393.5 1.00014
1394 1.00014
1394.5 1.00014
1395 1.00014
1395.5 1.00014
1396 1.00014
1396.5 1.00014
1397 1.00014
1397.5 1.00014
1398 1.00014
1398.5 1.00014
1399 1.00014
1399.5 1.00014
1400 1.00014
1400.5 1.00014
1401 1.00014
1401.5 1.00014
1402 1.00014
1402.5 1.00014
1403 1.00014
1403.5 1.00013
1404 1.00013
1404.5 1.00013
1405 1.00013
1405.5 1.00013
1406 1.00013
1406.5 1.00013
1407 1.00013
1407.5 1.00013
1408 1.00013
1408.5 1.00013
1409 1.00013
1409.5 1.00013
1410 1.00013
1410.5 1.00013
1411 1.00013
1411.5 1.00013
1412 1.00013
1412.5 1.00013
1413 1.00013
1413.5 1.00013
1414 1.00013
1414.5 1.00013
1415 1.00013
1415.5 1.00013
1416 1.00013
1416.5 1.00013
1417 1.00013
1417.5 1.00013
1418 1.00013
1418.5 1.00013
1419 1.00013
1419.5 1.00013
1420 1.00013
1420.5 1.00013
1421 1.00013
1421.5 1.00013
1422 1.00013
1422.5 1.00013
1423 1.00013
1423.5 1.00013
1424 1.00013
1424.5 1.00013
1425 1.00013
1425.5 1.00013
1426 1.00013
1426.5 1.00013
1427 1.00013
1427.5 1.00013
1428 1.00013
1428.5 1.00013
1429 1.00013
1429.5 1.00013
1430 1.00013
1430.5 1.00012
1431 1.00012
1431.5 1.00012
1432 1.00012
1432.5 1.00012
1433 1.00012
1433.5 1.00012
1434 1.00012
1434.5 1.00012
1435 1.00012
1435.5 1.00012
1436 1.00012
1436.5 1.00012
1437 1.00012
1437.5 1.00012
1438 1.00012
1438.5 1.00012
1439 1.00012
1439.5 1.00012
1440 1.00012
1440.5 1.00012
1441 1.00012
1441.5 1.00012
1442 1.00012
1442.5 1.00012
1443 1.00012
1443.5 1.00012
1444 1.00012
1444.5 1.00012
1445 1.00012
1445.5 1.00012
1446 1.00012
1446.5 1.00012
1447 1.00012
1447.5 1.00012
1448 1.00012
1448.5 1.00012
1449 1.00012
1449.5 1.00012
1450 1.00012
1450.5 1.00012
1451 1.00012
1451.5 1.00012
1452 1.00012
1452.5 1.00012
1453 1.00012
1453.5 1.00012
1454 1.00012
1454.5 1.00012
1455 1.00012
1455.5 1.00012
1456 1.00012
1456.5 1.00012
1457 1.00012
1457.5 1.00012
1458 1.00012
1458.5 1.00012
1459 1.00012
1459.5 1.00012
1460 1.00011
1460.5 1.00011
1461 1.00011
1461.5 1.00011
1462 1.00011
1462.5 1.00011
1463 1.00011
1463.5 1.00011
1464 1.00011
1464.5 1.00011
1465 1.00011
1465.5 1.00011
1466 1.00011
1466.5 1.00011
1467 1.00011
1467.5 1.00011
1468 1.00011
1468.5 1.00011
1469 1.00011
1469.5 1.00011
1470 1.00011
1470.5 1.00011
1471 1.00011
1471.5 1.00011
1472 1.00011
1472.5 1.00011
1473 1.00011
1473.5 1.00011
1474 1.00011
1474.5 1.00011
1475 1.00011
1475.5 1.00011
1476 1.00011
1476.5 1.00011
1477 1.00011
1477.5 1.00011
1478 1.00011
1478.5 1.00011
1479 1.00011
1479.5 1.00011
1480 1.00011
1480.5 1.00011
1481 1.00011
1481.5 1.00011
1482 1.00011
1482.5 1.00011
1483 1.00011
1483.5 1.00011
1484 1.00011
1484.5 1.00011
1485 1.00011
1485.5 1.00011
1486 1.00011
1486.5 1.00011
1487 1.00011
1487.5 1.00011
1488 1.00011
1488.5 1.00011
1489 1.00011
1489.5 1.00011
1490 1.00011
1490.5 1.00011
1491 1.00011
1491.5 1.00011
1492 1.00011
1492.5 1.00011
1493 1.00011
1493.5 1.0001
1494 1.0001
1494.5 1.0001
1495 1.0001
1495.5 1.0001
1496 1.0001
1496.5 1.0001
1497 1.0001
1497.5 1.0001
1498 1.0001
1498.5 1.0001
1499 1.0001
1499.5 1.0001
1500 1.0001
1500.5 1.0001
1501 1.0001
1501.5 1.0001
1502 1.0001
1502.5 1.0001
1503 1.0001
1503.5 1.0001
1504 1.0001
1504.5 1.0001
1505 1.0001
1505.5 1.0001
1506 1.0001
1506.5 1.0001
1507 1.0001
1507.5 1.0001
1508 1.0001
1508.5 1.0001
1509 1.0001
1509.5 1.0001
1510 1.0001
1510.5 1.0001
1511 1.0001
1511.5 1.0001
1512 1.0001
1512.5 1.0001
1513 1.0001
1513.5 1.0001
1514 1.0001
1514.5 1.0001
1515 1.0001
1515.5 1.0001
1516 1.0001
1516.5 1.0001
1517 1.0001
1517.5 1.0001
1518 1.0001
1518.5 1.0001
1519 1.0001
1519.5 1.0001
1520 1.0001
1520.5 1.0001
1521 1.0001
1521.5 1.0001
1522 1.0001
1522.5 1.0001
1523 1.0001
1523.5 1.0001
1524 1.0001
1524.5 1.0001
1525 1.0001
1525.5 1.0001
1526 1.0001
1526.5 1.0001
1527 1.0001
1527.5 1.0001
1528 1.0001
1528.5 1.0001
1529 1.0001
1529.5 1.0001
1530 1.0001
1530.5 1.00009
1531 1.00009
1531.5 1.00009
1532 1.00009
1532.5 1.00009
1533 1.00009
1533.5 1.00009
1534 1.00009
1534.5 1.00009
1535 1.00009
1535.5 1.00009
1536 1.00009
1536.5 1.00009
1537 1.00009
1537.5 1.00009
1538 1.00009
1538.5 1.00009
1539 1.00009
1539.5 1.00009
1540 1.00009
1540.5 1.00009
1541 1.00009
1541.5 1.00009
1542 1.00009
1542.5 1.00009
1543 1.00009
1543.5 1.00009
1544 1.00009
1544.5 1.00009
1545 1.00009
1545.5 1.00009
1546 1.00009
1546.5 1.00009
1547 1.00009
1547.5 1.00009
1548 1.00009
1548.5 1.00009
1549 1.00009
1549.5 1.00009
1550 1.00009
1550.5 1.00009
1551 1.00009
1551.5 1.00009
1552 1.00009
1552.5 1.00009
1553 1.00009
1553.5 1.00009
1554 1.00009
1554.5 1.00009
1555 1.00009
1555.5 1.00009
1556 1.00009
1556.5 1.00009
1557 1.00009
1557.5 1.00009
1558 1.00009
1558.5 1.00009
1559 1.00009
1559.5 1.00009
1560 1.00009
1560.5 1.00009
1561 1.00009
1561.5 1.00009
1562 1.00009
1562.5 1.00009
1563 1.00009
1563.5 1.00009
1564 1.00009
1564.5 1.00009
1565 1.00009
1565.5 1.00009
1566 1.00009
1566.5 1.00009
1567 1.00009
1567.5 1.00009
1568 1.00009
1568.5 1.00009
1569 1.00009
1569.5 1.00009
1570 1.00009
1570.5 1.00009
1571 1.00009
1571.5 1.00009
1572 1.00009
1572.5 1.00009
1573 1.00009
1573.5 1.00008
1574 1.00008
1574.5 1.00008
1575 1.00008
1575.5 1.00008
1576 1.00008
1576.5 1.00008
1577 1.00008
1577.5 1.00008
1578 1.00008
1578.5 1.00008
1579 1.00008
1579.5 1.00008
1580 1.00008
1580.5 1.00008
1581 1.00008
1581.5 1.00008
1582 1.00008
1582.5 1.00008
1583 1.00008
1583.5 1.00008
1584 1.00008
1584.5 1.00008
1585 1.00008
1585.5 1.00008
1586 1.00008
1586.5 1.00008
1587 1.00008
1587.5 1.00008
1588 1.00008
1588.5 1.00008
1589 1.00008
1589.5 1.00008
1590 1.00008
1590.5 1.00008
1591 1.00008
1591.5 1.00008
1592 1.00008
1592.5 1.00008
1593 1.00008
1593.5 1.00008
1594 1.00008
1594.5 1.00008
1595 1.00008
1595.5 1.00008
1596 1.00008
1596.5 1.00008
1597 1.00008
1597.5 1.00008
1598 1.00008
1598.5 1.00008
1599 1.00008
1599.5 1.00008
1600 1.00008
1600.5 1.00008
1601 1.00008
1601.5 1.00008
1602 1.00008
1602.5 1.00008
1603 1.00008
1603.5 1.00008
1604 1.00008
1604.5 1.00008
1605 1.00008
1605.5 1.00008
1606 1.00008
1606.5 1.00008
1607 1.00008
1607.5 1.00008
1608 1.00008
1608.5 1.00008
1609 1.00008
1609.5 1.00008
1610 1.00008
1610.5 1.00008
1611 1.00008
1611.5 1.00008
1612 1.00008
1612.5 1.00008
1613 1.00008
1613.5 1.00008
1614 1.00008
1614.5 1.00008
1615 1.00008
1615.5 1.00008
1616 1.00008
1616.5 1.00008
1617 1.00008
1617.5 1.00008
1618 1.00008
1618.5 1.00008
1619 1.00008
1619.5 1.00008
1620 1.00008
1620.5 1.00008
1621 1.00008
1621.5 1.00008
1622 1.00008
1622.5 1.00008
1623 1.00007
1623.5 1.00007
1624 1.00007
1624.5 1.00007
1625 1.00007
1625.5 1.00007
1626 1.00007
1626.5 1.00007
1627 1.00007
1627.5 1.00007
1628 1.00007
1628.5 1.00007
1629 1.00007
1629.5 1.00007
1630 1.00007
1630.5 1.00007
1631 1.00007
1631.5 1.00007
1632 1.00007
1632.5 1.00007
1633 1.00007
1633.5 1.00007
1634 1.00007
1634.5 1.00007
1635 1.00007
1635.5 1.00007
1636 1.00007
1636.5 1.00007
1637 1.00007
1637.5 1.00007
1638 1.00007
1638.5 1.00007
1639 1.00007
1639.5 1.00007
1640 1.00007
1640.5 1.00007
1641 1.00007
1641.5 1.00007
1642 1.00007
1642.5 1.00007
1643 1.00007
1643.5 1.00007
1644 1.00007
1644.5 1.00007
1645 1.00007
1645.5 1.00007
1646 1.00007
1646.5 1.00007
1647 1.00007
1647.5 1.00007
1648 1.00007
1648.5 1.00007
1649 1.00007
1649.5 1.00007
1650 1.00007
1650.5 1.00007
1651 1.00007
1651.5 1.00007
1652 1.00007
1652.5 1.00007
1653 1.00007
1653.5 1.00007
1654 1.00007
1654.5 1.00007
1655 1.00007
1655.5 1.00007
1656 1.00007
1656.5 1.00007
1657 1.00007
1657.5 1.00007
1658 1.00007
1658.5 1.00007
1659 1.00007
1659.5 1.00007
1660 1.00007
1660.5 1.00007
1661 1.00007
1661.5 1.00007
1662 1.00007
1662.5 1.00007
1663 1.00007
1663.5 1.00007
1664 1.00007
1664.5 1.00007
1665 1.00007
1665.5 1.00007
1666 1.00007
1666.5 1.00007
1667 1.00007
1667.5 1.00007
1668 1.00007
1668.5 1.00007
1669 1.00007
1669.5 1.00007
1670 1.00007
1670.5 1.00007
1671 1.00007
1671.5 1.00007
1672 1.00007
1672.5 1.00007
1673 1.00007
1673.5 1.00007
1674 1.00007
1674.5 1.00007
1675 1.00007
1675.5 1.00007
1676 1.00007
1676.5 1.00007
1677 1.00007
1677.5 1.00007
1678 1.00007
1678.5 1.00007
1679 1.00007
1679.5 1.00007
1680 1.00007
1680.5 1.00007
1681 1.00007
1681.5 1.00006
1682 1.00006
1682.5 1.00006
1683 1.00006
1683.5 1.00006
1684 1.00006
1684.5 1.00006
1685 1.00006
1685.5 1.00006
1686 1.00006
1686.5 1.00006
1687 1.00006
1687.5 1.00006
1688 1.00006
1688.5 1.00006
1689 1.00006
1689.5 1.00006
1690 1.00006
1690.5 1.00006
1691 1.00006
1691.5 1.00006
1692 1.00006
1692.5 1.00006
1693 1.00006
1693.5 1.00006
1694 1.00006
1694.5 1.00006
1695 1.00006
1695.5 1.00006
1696 1.00006
1696.5 1.00006
1697 1.00006
1697.5 1.00006
1698 1.00006
1698.5 1.00006
1699 1.00006
1699.5 1.00006
1700 1.00006
1700.5 1.00006
1701 1.00006
1701.5 1.00006
1702 1.00006
1702.5 1.00006
1703 1.00006
1703.5 1.00006
1704 1.00006
1704.5 1.00006
1705 1.00006
1705.5 1.00006
1706 1.00006
1706.5 1.00006
1707 1.00006
1707.5 1.00006
1708 1.00006
1708.5 1.00006
1709 1.00006
1709.5 1.00006
1710 1.00006
1710.5 1.00006
1711 1.00006
1711.5 1.00006
1712 1.00006
1712.5 1.00006
1713 1.00006
1713.5 1.00006
1714 1.00006
1714.5 1.00006
1715 1.00006
1715.5 1.00006
1716 1.00006
1716.5 1.00006
1717 1.00006
1717.5 1.00006
1718 1.00006
1718.5 1.00006
1719 1.00006
1719.5 1.00006
1720 1.00006
1720.5 1.00006
1721 1.00006
1721.5 1.00006
1722 1.00006
1722.5 1.00006
1723 1.00006
1723.5 1.00006
1724 1.00006
1724.5 1.00006
1725 1.00006
1725.5 1.00006
1726 1.00006
1726.5 1.00006
1727 1.00006
1727.5 1.00006
1728 1.00006
1728.5 1.00006
1729 1.00006
1729.5 1.00006
1730 1.00006
1730.5 1.00006
1731 1.00006
1731.5 1.00006
1732 1.00006
1732.5 1.00006
1733 1.00006
1733.5 1.00006
1734 1.00006
1734.5 1.00006
1735 1.00006
1735.5 1.00006
1736 1.00006
1736.5 1.00006
1737 1.00006
1737.5 1.00006
1738 1.00006
1738.5 1.00006
1739 1.00006
1739.5 1.00006
1740 1.00006
1740.5 1.00006
1741 1.00006
1741.5 1.00006
1742 1.00006
1742.5 1.00006
1743 1.00006
1743.5 1.00006
1744 1.00006
1744.5 1.00006
1745 1.00006
1745.5 1.00006
1746 1.00006
1746.5 1.00006
1747 1.00006
1747.5 1.00006
1748 1.00006
1748.5 1.00006
1749 1.00006
1749.5 1.00006
1750 1.00006
1750.5 1.00006
1751 1.00006
1751.5 1.00006
1752 1.00006
1752.5 1.00005
1753 1.00005
1753.5 1.00005
1754 1.00005
1754.5 1.00005
1755 1.00005
1755.5 1.00005
1756 1.00005
1756.5 1.00005
1757 1.00005
1757.5 1.00005
1758 1.00005
1758.5 1.00005
1759 1.00005
1759.5 1.00005
1760 1.00005
1760.5 1.00005
1761 1.00005
1761.5 1.00005
1762 1.00005
1762.5 1.00005
1763 1.00005
1763.5 1.00005
1764 1.00005
1764.5 1.00005
1765 1.00005
1765.5 1.00005
1766 1.00005
1766.5 1.00005
1767 1.00005
1767.5 1.00005
1768 1.00005
1768.5 1.00005
1769 1.00005
1769.5 1.00005
1770 1.00005
1770.5 1.00005
1771 1.00005
1771.5 1.00005
1772 1.00005
1772.5 1.00005
1773 1.00005
1773.5 1.00005
1774 1.00005
1774.5 1.00005
1775 1.00005
1775.5 1.00005
1776 1.00005
1776.5 1.00005
1777 1.00005
1777.5 1.00005
1778 1.00005
1778.5 1.00005
1779 1.00005
1779.5 1.00005
1780 1.00005
1780.5 1.00005
1781 1.00005
1781.5 1.00005
1782 1.00005
1782.5 1.00005
1783 1.00005
1783.5 1.00005
1784 1.00005
1784.5 1.00005
1785 1.00005
1785.5 1.00005
1786 1.00005
1786.5 1.00005
1787 1.00005
1787.5 1.00005
1788 1.00005
1788.5 1.00005
1789 1.00005
1789.5 1.00005
1790 1.00005
1790.5 1.00005
1791 1.00005
1791.5 1.00005
1792 1.00005
1792.5 1.00005
1793 1.00005
1793.5 1.00005
1794 1.00005
1794.5 1.00005
1795 1.00005
1795.5 1.00005
1796 1.00005
1796.5 1.00005
1797 1.00005
1797.5 1.00005
1798 1.00005
1798.5 1.00005
1799 1.00005
1799.5 1.00005
1800 1.00005
1800.5 1.00005
1801 1.00005
1801.5 1.00005
1802 1.00005
1802.5 1.00005
1803 1.00005
1803.5 1.00005
1804 1.00005
1804.5 1.00005
1805 1.00005
1805.5 1.00005
1806 1.00005
1806.5 1.00005
1807 1.00005
1807.5 1.00005
1808 1.00005
1808.5 1.00005
1809 1.00005
1809.5 1.00005
1810 1.00005
1810.5 1.00005
1811 1.00005
1811.5 1.00005
1812 1.00005
1812.5 1.00005
1813 1.00005
1813.5 1.00005
1814 1.00005
1814.5 1.00005
1815 1.00005
1815.5 1.00005
1816 1.00005
1816.5 1.00005
1817 1.00005
1817.5 1.00005
1818 1.00005
1818.5 1.00005
1819 1.00005
1819.5 1.00005
1820 1.00005
1820.5 1.00005
1821 1.00005
1821.5 1.00005
1822 1.00005
1822.5 1.00005
1823 1.00005
1823.5 1.00005
1824 1.00005
1824.5 1.00005
1825 1.00005
1825.5 1.00005
1826 1.00005
1826.5 1.00005
1827 1.00005
1827.5 1.00005
1828 1.00005
1828.5 1.00005
1829 1.00005
1829.5 1.00005
1830 1.00005
1830.5 1.00005
1831 1.00005
1831.5 1.00005
1832 1.00005
1832.5 1.00005
1833 1.00005
1833.5 1.00005
1834 1.00005
1834.5 1.00005
1835 1.00005
1835.5 1.00005
1836 1.00005
1836.5 1.00005
1837 1.00005
1837.5 1.00005
1838 1.00005
1838.5 1.00005
1839 1.00005
1839.5 1.00005
1840 1.00005
1840.5 1.00005
1841 1.00005
1841.5 1.00005
1842 1.00004
1842.5 1.00004
1843 1.00004
1843.5 1.00004
1844 1.00004
1844.5 1.00004
1845 1.00004
1845.5 1.00004
1846 1.00004
1846.5 1.00004
1847 1.00004
1847.5 1.00004
1848 1.00004
1848.5 1.00004
1849 1.00004
1849.5 1.00004
1850 1.00004
1850.5 1.00004
1851 1.00004
1851.5 1.00004
1852 1.00004
1852.5 1.00004
1853 1.00004
1853.5 1.00004
1854 1.00004
1854.5 1.00004
1855 1.00004
1855.5 1.00004
1856 1.00004
1856.5 1.00004
1857 1.00004
1857.5 1.00004
1858 1.00004
1858.5 1.00004
1859 1.00004
1859.5 1.00004
1860 1.00004
1860.5 1.00004
1861 1.00004
1861.5 1.00004
1862 1.00004
1862.5 1.00004
1863 1.00004
1863.5 1.00004
1864 1.00004
1864.5 1.00004
1865 1.00004
1865.5 1.00004
1866 1.00004
1866.5 1.00004
1867 1.00004
1867.5 1.00004
1868 1.00004
1868.5 1.00004
1869 1.00004
1869.5 1.00004
1870 1.00004
1870.5 1.00004
1871 1.00004
1871.5 1.00004
1872 1.00004
1872.5 1.00004
1873 1.00004
1873.5 1.00004
1874 1.00004
1874.5 1.00004
1875 1.00004
1875.5 1.00004
1876 1.00004
1876.5 1.00004
1877 1.00004
1877.5 1.00004
1878 1.00004
1878.5 1.00004
1879 1.00004
1879.5 1.00004
1880 1.00004
1880.5 1.00004
1881 1.00004
1881.5 1.00004
1882 1.00004
1882.5 1.00004
1883 1.00004
1883.5 1.00004
1884 1.00004
1884.5 1.00004
1885 1.00004
1885.5 1.00004
1886 1.00004
1886.5 1.00004
1887 1.00004
1887.5 1.00004
1888 1.00004
1888.5 1.00004
1889 1.00004
1889.5 1.00004
1890 1.00004
1890.5 1.00004
1891 1.00004
1891.5 1.00004
1892 1.00004
1892.5 1.00004
1893 1.00004
1893.5 1.00004
1894 1.00004
1894.5 1.00004
1895 1.00004
1895.5 1.00004
1896 1.00004
1896.5 1.00004
1897 1.00004
1897.5 1.00004
1898 1.00004
1898.5 1.00004
1899 1.00004
1899.5 1.00004
1900 1.00004
1900.5 1.00004
1901 1.00004
1901.5 1.00004
1902 1.00004
1902.5 1.00004
1903 1.00004
1903.5 1.00004
1904 1.00004
1904.5 1.00004
1905 1.00004
1905.5 1.00004
1906 1.00004
1906.5 1.00004
1907 1.00004
1907.5 1.00004
1908 1.00004
1908.5 1.00004
1909 1.00004
1909.5 1.00004
1910 1.00004
1910.5 1.00004
1911 1.00004
1911.5 1.00004
1912 1.00004
1912.5 1.00004
1913 1.00004
1913.5 1.00004
1914 1.00004
1914.5 1.00004
1915 1.00004
1915.5 1.00004
1916 1.00004
1916.5 1.00004
1917 1.00004
1917.5 1.00004
1918 1.00004
1918.5 1.00004
1919 1.00004
1919.5 1.00004
1920 1.00004
1920.5 1.00004
1921 1.00004
1921.5 1.00004
1922 1.00004
1922.5 1.00004
1923 1.00004
1923.5 1.00004
1924 1.00004
1924.5 1.00004
1925 1.00004
1925.5 1.00004
1926 1.00004
1926.5 1.00004
1927 1.00004
1927.5 1.00004
1928 1.00004
1928.5 1.00004
1929 1.00004
1929.5 1.00004
1930 1.00004
1930.5 1.00004
1931 1.00004
1931.5 1.00004
1932 1.00004
1932.5 1.00004
1933 1.00004
1933.5 1.00004
1934 1.00004
1934.5 1.00004
1935 1.00004
1935.5 1.00004
1936 1.00004
1936.5 1.00004
1937 1.00004
1937.5 1.00004
1938 1.00004
1938.5 1.00004
1939 1.00004
1939.5 1.00004
1940 1.00004
1940.5 1.00004
1941 1.00004
1941.5 1.00004
1942 1.00004
1942.5 1.00004
1943 1.00004
1943.5 1.00004
1944 1.00004
1944.5 1.00004
1945 1.00004
1945.5 1.00004
1946 1.00004
1946.5 1.00004
1947 1.00004
1947.5 1.00004
1948 1.00004
1948.5 1.00004
1949 1.00004
1949.5 1.00004
1950 1.00004
1950.5 1.00004
1951 1.00004
1951.5 1.00004
1952 1.00004
1952.5 1.00004
1953 1.00004
1953.5 1.00004
1954 1.00004
1954.5 1.00004
1955 1.00004
1955.5 1.00004
1956 1.00004
1956.5 1.00004
1957 1.00004
1957.5 1.00004
1958 1.00004
1958.5 1.00004
1959 1.00004
1959.5 1.00004
1960 1.00004
1960.5 1.00003
1961 1.00003
1961.5 1.00003
1962 1.00003
1962.5 1.00003
1963 1.00003
1963.5 1.00003
1964 1.00003
1964.5 1.00003
1965 1.00003
1965.5 1.00003
1966 1.00003
1966.5 1.00003
1967 1.00003
1967.5 1.00003
1968 1.00003
1968.5 1.00003
1969 1.00003
1969.5 1.00003
1970 1.00003
1970.5 1.00003
1971 1.00003
1971.5 1.00003
1972 1.00003
1972.5 1.00003
1973 1.00003
1973.5 1.00003
1974 1.00003
1974.5 1.00003
1975 1.00003
1975.5 1.00003
1976 1.00003
1976.5 1.00003
1977 1.00003
1977.5 1.00003
1978 1.00003
1978.5 1.00003
1979 1.00003
1979.5 1.00003
1980 1.00003
1980.5 1.00003
1981 1.00003
1981.5 1.00003
1982 1.00003
1982.5 1.00003
1983 1.00003
1983.5 1.00003
1984 1.00003
1984.5 1.00003
1985 1.00003
1985.5 1.00003
1986 1.00003
1986.5 1.00003
1987 1.00003
1987.5 1.00003
1988 1.00003
1988.5 1.00003
1989 1.00003
1989.5 1.00003
1990 1.00003
1990.5 1.00003
1991 1.00003
1991.5 1.00003
1992 1.00003
1992.5 1.00003
1993 1.00003
1993.5 1.00003
1994 1.00003
1994.5 1.00003
1995 1.00003
1995.5 1.00003
1996 1.00003
1996.5 1.00003
1997 1.00003
1997.5 1.00003
1998 1.00003
1998.5 1.00003
1999 1.00003
1999.5 1.00003
