### FSI tabel with Verma Potential (2-Gauss potential) #####
# Weight # krel [MeV] 
0.5 8.59586
1 5.42631
1.5 5.61647
2 7.66023
2.5 6.90698
3 5.78764
3.5 5.66403
4 6.0221
4.5 6.40496
5 6.56504
5.5 6.48362
6 6.29096
6.5 6.11909
7 6.0292
7.5 6.02045
8 6.06173
8.5 6.11676
9 6.15839
9.5 6.17362
10 6.16209
10.5 6.13109
11 6.0904
11.5 6.04859
12 6.01134
12.5 5.98119
13 5.95816
13.5 5.9407
14 5.92652
14.5 5.91331
15 5.8992
15.5 5.88293
16 5.8639
16.5 5.84206
17 5.81776
17.5 5.79154
18 5.76404
18.5 5.73581
19 5.70731
19.5 5.67884
20 5.65056
20.5 5.62253
21 5.59469
21.5 5.56696
22 5.5392
22.5 5.51129
23 5.48312
23.5 5.45461
24 5.4257
24.5 5.39638
25 5.36664
25.5 5.3365
26 5.30601
26.5 5.2752
27 5.24412
27.5 5.21283
28 5.18135
28.5 5.14974
29 5.11802
29.5 5.08621
30 5.05434
30.5 5.02242
31 4.99046
31.5 4.95846
32 4.92643
32.5 4.89438
33 4.86231
33.5 4.83023
34 4.79814
34.5 4.76604
35 4.73395
35.5 4.70188
36 4.66983
36.5 4.6378
37 4.60582
37.5 4.5739
38 4.54203
38.5 4.51023
39 4.47851
39.5 4.44689
40 4.41536
40.5 4.38393
41 4.35262
41.5 4.32143
42 4.29037
42.5 4.25945
43 4.22866
43.5 4.19801
44 4.16752
44.5 4.13718
45 4.107
45.5 4.07699
46 4.04714
46.5 4.01746
47 3.98796
47.5 3.95864
48 3.9295
48.5 3.90054
49 3.87178
49.5 3.8432
50 3.81481
50.5 3.78663
51 3.75864
51.5 3.73085
52 3.70326
52.5 3.67587
53 3.6487
53.5 3.62173
54 3.59496
54.5 3.56841
55 3.54207
55.5 3.51594
56 3.49003
56.5 3.46433
57 3.43884
57.5 3.41357
58 3.38851
58.5 3.36367
59 3.33904
59.5 3.31463
60 3.29043
60.5 3.26645
61 3.24269
61.5 3.21914
62 3.1958
62.5 3.17268
63 3.14977
63.5 3.12708
64 3.10459
64.5 3.08232
65 3.06026
65.5 3.03841
66 3.01677
66.5 2.99534
67 2.97411
67.5 2.9531
68 2.93228
68.5 2.91167
69 2.89127
69.5 2.87106
70 2.85106
70.5 2.83126
71 2.81165
71.5 2.79224
72 2.77303
72.5 2.75401
73 2.73519
73.5 2.71655
74 2.69811
74.5 2.67985
75 2.66179
75.5 2.64391
76 2.62621
76.5 2.60869
77 2.59136
77.5 2.57421
78 2.55724
78.5 2.54044
79 2.52382
79.5 2.50737
80 2.4911
80.5 2.475
81 2.45906
81.5 2.4433
82 2.4277
82.5 2.41226
83 2.39699
83.5 2.38188
84 2.36693
84.5 2.35215
85 2.33751
85.5 2.32304
86 2.30871
86.5 2.29455
87 2.28053
87.5 2.26666
88 2.25294
88.5 2.23937
89 2.22594
89.5 2.21266
90 2.19952
90.5 2.18652
91 2.17366
91.5 2.16093
92 2.14835
92.5 2.1359
93 2.12358
93.5 2.1114
94 2.09935
94.5 2.08743
95 2.07563
95.5 2.06397
96 2.05243
96.5 2.04101
97 2.02972
97.5 2.01855
98 2.00749
98.5 1.99656
99 1.98575
99.5 1.97505
100 1.96447
100.5 1.954
101 1.94365
101.5 1.93341
102 1.92327
102.5 1.91325
103 1.90334
103.5 1.89353
104 1.88383
104.5 1.87423
105 1.86474
105.5 1.85535
106 1.84606
106.5 1.83687
107 1.82777
107.5 1.81878
108 1.80989
108.5 1.80109
109 1.79238
109.5 1.78377
110 1.77525
110.5 1.76682
111 1.75849
111.5 1.75024
112 1.74208
112.5 1.73401
113 1.72603
113.5 1.71813
114 1.71032
114.5 1.70259
115 1.69494
115.5 1.68738
116 1.67989
116.5 1.67249
117 1.66517
117.5 1.65792
118 1.65075
118.5 1.64366
119 1.63665
119.5 1.62971
120 1.62284
120.5 1.61605
121 1.60933
121.5 1.60269
122 1.59611
122.5 1.5896
123 1.58317
123.5 1.5768
124 1.5705
124.5 1.56427
125 1.5581
125.5 1.552
126 1.54597
126.5 1.54
127 1.53409
127.5 1.52825
128 1.52246
128.5 1.51674
129 1.51108
129.5 1.50548
130 1.49994
130.5 1.49446
131 1.48904
131.5 1.48368
132 1.47837
132.5 1.47312
133 1.46792
133.5 1.46278
134 1.45769
134.5 1.45266
135 1.44768
135.5 1.44276
136 1.43788
136.5 1.43306
137 1.42829
137.5 1.42357
138 1.4189
138.5 1.41428
139 1.40971
139.5 1.40518
140 1.40071
140.5 1.39628
141 1.3919
141.5 1.38756
142 1.38327
142.5 1.37903
143 1.37483
143.5 1.37068
144 1.36657
144.5 1.3625
145 1.35847
145.5 1.35449
146 1.35055
146.5 1.34666
147 1.3428
147.5 1.33898
148 1.33521
148.5 1.33147
149 1.32777
149.5 1.32412
150 1.3205
150.5 1.31692
151 1.31338
151.5 1.30987
152 1.3064
152.5 1.30297
153 1.29957
153.5 1.29622
154 1.29289
154.5 1.2896
155 1.28635
155.5 1.28313
156 1.27994
156.5 1.27679
157 1.27367
157.5 1.27059
158 1.26753
158.5 1.26451
159 1.26152
159.5 1.25856
160 1.25564
160.5 1.25274
161 1.24988
161.5 1.24704
162 1.24424
162.5 1.24146
163 1.23872
163.5 1.236
164 1.23331
164.5 1.23065
165 1.22802
165.5 1.22542
166 1.22284
166.5 1.2203
167 1.21777
167.5 1.21528
168 1.21281
168.5 1.21037
169 1.20795
169.5 1.20556
170 1.2032
170.5 1.20086
171 1.19854
171.5 1.19625
172 1.19398
172.5 1.19174
173 1.18952
173.5 1.18733
174 1.18516
174.5 1.18301
175 1.18088
175.5 1.17878
176 1.1767
176.5 1.17464
177 1.17261
177.5 1.17059
178 1.1686
178.5 1.16663
179 1.16467
179.5 1.16275
180 1.16084
180.5 1.15895
181 1.15708
181.5 1.15523
182 1.1534
182.5 1.15159
183 1.1498
183.5 1.14803
184 1.14628
184.5 1.14455
185 1.14283
185.5 1.14114
186 1.13946
186.5 1.1378
187 1.13616
187.5 1.13453
188 1.13293
188.5 1.13134
189 1.12977
189.5 1.12821
190 1.12667
190.5 1.12515
191 1.12365
191.5 1.12216
192 1.12068
192.5 1.11923
193 1.11779
193.5 1.11636
194 1.11495
194.5 1.11356
195 1.11218
195.5 1.11081
196 1.10946
196.5 1.10813
197 1.10681
197.5 1.1055
198 1.10421
198.5 1.10294
199 1.10167
199.5 1.10042
200 1.09919
200.5 1.09797
201 1.09676
201.5 1.09556
202 1.09438
202.5 1.09321
203 1.09205
203.5 1.09091
204 1.08978
204.5 1.08866
205 1.08755
205.5 1.08646
206 1.08538
206.5 1.08431
207 1.08325
207.5 1.08221
208 1.08117
208.5 1.08015
209 1.07914
209.5 1.07814
210 1.07715
210.5 1.07617
211 1.0752
211.5 1.07425
212 1.0733
212.5 1.07237
213 1.07144
213.5 1.07053
214 1.06962
214.5 1.06873
215 1.06785
215.5 1.06697
216 1.06611
216.5 1.06525
217 1.06441
217.5 1.06358
218 1.06275
218.5 1.06194
219 1.06113
219.5 1.06033
220 1.05954
220.5 1.05876
221 1.05799
221.5 1.05723
222 1.05648
222.5 1.05574
223 1.055
223.5 1.05427
224 1.05355
224.5 1.05284
225 1.05214
225.5 1.05145
226 1.05076
226.5 1.05008
227 1.04941
227.5 1.04875
228 1.0481
228.5 1.04745
229 1.04681
229.5 1.04618
230 1.04555
230.5 1.04494
231 1.04432
231.5 1.04372
232 1.04313
232.5 1.04254
233 1.04196
233.5 1.04138
234 1.04081
234.5 1.04025
235 1.0397
235.5 1.03915
236 1.03861
236.5 1.03807
237 1.03754
237.5 1.03702
238 1.0365
238.5 1.03599
239 1.03549
239.5 1.03499
240 1.0345
240.5 1.03401
241 1.03353
241.5 1.03306
242 1.03259
242.5 1.03213
243 1.03167
243.5 1.03122
244 1.03077
244.5 1.03033
245 1.02989
245.5 1.02946
246 1.02904
246.5 1.02862
247 1.0282
247.5 1.02779
248 1.02739
248.5 1.02699
249 1.0266
249.5 1.02621
250 1.02582
250.5 1.02544
251 1.02507
251.5 1.0247
252 1.02433
252.5 1.02397
253 1.02361
253.5 1.02326
254 1.02291
254.5 1.02257
255 1.02223
255.5 1.0219
256 1.02157
256.5 1.02124
257 1.02092
257.5 1.0206
258 1.02029
258.5 1.01998
259 1.01967
259.5 1.01937
260 1.01907
260.5 1.01878
261 1.01848
261.5 1.0182
262 1.01791
262.5 1.01764
263 1.01736
263.5 1.01709
264 1.01682
264.5 1.01655
265 1.01629
265.5 1.01603
266 1.01578
266.5 1.01553
267 1.01528
267.5 1.01504
268 1.01479
268.5 1.01456
269 1.01432
269.5 1.01409
270 1.01386
270.5 1.01364
271 1.01341
271.5 1.01319
272 1.01298
272.5 1.01276
273 1.01255
273.5 1.01234
274 1.01214
274.5 1.01194
275 1.01174
275.5 1.01154
276 1.01135
276.5 1.01115
277 1.01097
277.5 1.01078
278 1.0106
278.5 1.01041
279 1.01024
279.5 1.01006
280 1.00989
280.5 1.00972
281 1.00955
281.5 1.00938
282 1.00922
282.5 1.00906
283 1.0089
283.5 1.00874
284 1.00858
284.5 1.00843
285 1.00828
285.5 1.00813
286 1.00799
286.5 1.00784
287 1.0077
287.5 1.00756
288 1.00742
288.5 1.00729
289 1.00716
289.5 1.00702
290 1.00689
290.5 1.00677
291 1.00664
291.5 1.00652
292 1.00639
292.5 1.00627
293 1.00616
293.5 1.00604
294 1.00592
294.5 1.00581
295 1.0057
295.5 1.00559
296 1.00548
296.5 1.00537
297 1.00527
297.5 1.00517
298 1.00507
298.5 1.00497
299 1.00487
299.5 1.00477
300 1.00467
300.5 1.00458
301 1.00449
301.5 1.0044
302 1.00431
302.5 1.00422
303 1.00413
303.5 1.00405
304 1.00396
304.5 1.00388
305 1.0038
305.5 1.00372
306 1.00364
306.5 1.00356
307 1.00349
307.5 1.00341
308 1.00334
308.5 1.00327
309 1.0032
309.5 1.00313
310 1.00306
310.5 1.00299
311 1.00292
311.5 1.00286
312 1.0028
312.5 1.00273
313 1.00267
313.5 1.00261
314 1.00255
314.5 1.00249
315 1.00243
315.5 1.00238
316 1.00232
316.5 1.00227
317 1.00221
317.5 1.00216
318 1.00211
318.5 1.00206
319 1.00201
319.5 1.00196
320 1.00191
320.5 1.00186
321 1.00182
321.5 1.00177
322 1.00173
322.5 1.00168
323 1.00164
323.5 1.0016
324 1.00156
324.5 1.00152
325 1.00148
325.5 1.00144
326 1.0014
326.5 1.00136
327 1.00132
327.5 1.00129
328 1.00125
328.5 1.00122
329 1.00118
329.5 1.00115
330 1.00112
330.5 1.00109
331 1.00106
331.5 1.00102
332 1.00099
332.5 1.00097
333 1.00094
333.5 1.00091
334 1.00088
334.5 1.00085
335 1.00083
335.5 1.0008
336 1.00078
336.5 1.00075
337 1.00073
337.5 1.0007
338 1.00068
338.5 1.00066
339 1.00064
339.5 1.00062
340 1.0006
340.5 1.00057
341 1.00055
341.5 1.00054
342 1.00052
342.5 1.0005
343 1.00048
343.5 1.00046
344 1.00045
344.5 1.00043
345 1.00041
345.5 1.0004
346 1.00038
346.5 1.00037
347 1.00035
347.5 1.00034
348 1.00032
348.5 1.00031
349 1.0003
349.5 1.00028
350 1.00027
350.5 1.00026
351 1.00025
351.5 1.00024
352 1.00023
352.5 1.00021
353 1.0002
353.5 1.00019
354 1.00018
354.5 1.00018
355 1.00017
355.5 1.00016
356 1.00015
356.5 1.00014
357 1.00013
357.5 1.00013
358 1.00012
358.5 1.00011
359 1.0001
359.5 1.0001
360 1.00009
360.5 1.00008
361 1.00008
361.5 1.00007
362 1.00007
362.5 1.00006
363 1.00006
363.5 1.00005
364 1.00005
364.5 1.00005
365 1.00004
365.5 1.00004
366 1.00003
366.5 1.00003
367 1.00003
367.5 1.00002
368 1.00002
368.5 1.00002
369 1.00002
369.5 1.00001
370 1.00001
370.5 1.00001
371 1.00001
371.5 1.00001
372 1.00001
372.5 1
373 1
373.5 1
374 1
374.5 1
375 1
375.5 1
376 1
376.5 1
377 1
377.5 1
378 1
378.5 1
379 1
379.5 1
380 1
380.5 1
381 1
381.5 1.00001
382 1.00001
382.5 1.00001
383 1.00001
383.5 1.00001
384 1.00001
384.5 1.00001
385 1.00002
385.5 1.00002
386 1.00002
386.5 1.00002
387 1.00002
387.5 1.00003
388 1.00003
388.5 1.00003
389 1.00003
389.5 1.00004
390 1.00004
390.5 1.00004
391 1.00004
391.5 1.00005
392 1.00005
392.5 1.00005
393 1.00005
393.5 1.00006
394 1.00006
394.5 1.00006
395 1.00007
395.5 1.00007
396 1.00007
396.5 1.00007
397 1.00008
397.5 1.00008
398 1.00008
398.5 1.00009
399 1.00009
399.5 1.00009
400 1.0001
400.5 1.0001
401 1.00011
401.5 1.00011
402 1.00011
402.5 1.00012
403 1.00012
403.5 1.00012
404 1.00013
404.5 1.00013
405 1.00013
405.5 1.00014
406 1.00014
406.5 1.00015
407 1.00015
407.5 1.00015
408 1.00016
408.5 1.00016
409 1.00016
409.5 1.00017
410 1.00017
410.5 1.00018
411 1.00018
411.5 1.00018
412 1.00019
412.5 1.00019
413 1.0002
413.5 1.0002
414 1.0002
414.5 1.00021
415 1.00021
415.5 1.00021
416 1.00022
416.5 1.00022
417 1.00023
417.5 1.00023
418 1.00023
418.5 1.00024
419 1.00024
419.5 1.00025
420 1.00025
420.5 1.00025
421 1.00026
421.5 1.00026
422 1.00027
422.5 1.00027
423 1.00027
423.5 1.00028
424 1.00028
424.5 1.00028
425 1.00029
425.5 1.00029
426 1.0003
426.5 1.0003
427 1.0003
427.5 1.00031
428 1.00031
428.5 1.00031
429 1.00032
429.5 1.00032
430 1.00032
430.5 1.00033
431 1.00033
431.5 1.00034
432 1.00034
432.5 1.00034
433 1.00035
433.5 1.00035
434 1.00035
434.5 1.00036
435 1.00036
435.5 1.00036
436 1.00037
436.5 1.00037
437 1.00037
437.5 1.00038
438 1.00038
438.5 1.00038
439 1.00039
439.5 1.00039
440 1.00039
440.5 1.0004
441 1.0004
441.5 1.0004
442 1.00041
442.5 1.00041
443 1.00041
443.5 1.00042
444 1.00042
444.5 1.00042
445 1.00042
445.5 1.00043
446 1.00043
446.5 1.00043
447 1.00044
447.5 1.00044
448 1.00044
448.5 1.00044
449 1.00045
449.5 1.00045
450 1.00045
450.5 1.00046
451 1.00046
451.5 1.00046
452 1.00046
452.5 1.00047
453 1.00047
453.5 1.00047
454 1.00047
454.5 1.00048
455 1.00048
455.5 1.00048
456 1.00048
456.5 1.00049
457 1.00049
457.5 1.00049
458 1.00049
458.5 1.0005
459 1.0005
459.5 1.0005
460 1.0005
460.5 1.00051
461 1.00051
461.5 1.00051
462 1.00051
462.5 1.00051
463 1.00052
463.5 1.00052
464 1.00052
464.5 1.00052
465 1.00052
465.5 1.00053
466 1.00053
466.5 1.00053
467 1.00053
467.5 1.00053
468 1.00054
468.5 1.00054
469 1.00054
469.5 1.00054
470 1.00054
470.5 1.00054
471 1.00055
471.5 1.00055
472 1.00055
472.5 1.00055
473 1.00055
473.5 1.00055
474 1.00056
474.5 1.00056
475 1.00056
475.5 1.00056
476 1.00056
476.5 1.00056
477 1.00057
477.5 1.00057
478 1.00057
478.5 1.00057
479 1.00057
479.5 1.00057
480 1.00057
480.5 1.00057
481 1.00058
481.5 1.00058
482 1.00058
482.5 1.00058
483 1.00058
483.5 1.00058
484 1.00058
484.5 1.00058
485 1.00058
485.5 1.00059
486 1.00059
486.5 1.00059
487 1.00059
487.5 1.00059
488 1.00059
488.5 1.00059
489 1.00059
489.5 1.00059
490 1.00059
490.5 1.0006
491 1.0006
491.5 1.0006
492 1.0006
492.5 1.0006
493 1.0006
493.5 1.0006
494 1.0006
494.5 1.0006
495 1.0006
495.5 1.0006
496 1.0006
496.5 1.0006
497 1.0006
497.5 1.0006
498 1.00061
498.5 1.00061
499 1.00061
499.5 1.00061
500 1.00061
500.5 1.00061
501 1.00061
501.5 1.00061
502 1.00061
502.5 1.00061
503 1.00061
503.5 1.00061
504 1.00061
504.5 1.00061
505 1.00061
505.5 1.00061
506 1.00061
506.5 1.00061
507 1.00061
507.5 1.00061
508 1.00061
508.5 1.00061
509 1.00061
509.5 1.00061
510 1.00061
510.5 1.00061
511 1.00061
511.5 1.00061
512 1.00061
512.5 1.00061
513 1.00061
513.5 1.00061
514 1.00061
514.5 1.00061
515 1.00061
515.5 1.00061
516 1.00061
516.5 1.00061
517 1.00061
517.5 1.00061
518 1.00061
518.5 1.00061
519 1.00061
519.5 1.00061
520 1.00061
520.5 1.00061
521 1.00061
521.5 1.00061
522 1.00061
522.5 1.00061
523 1.00061
523.5 1.00061
524 1.00061
524.5 1.00061
525 1.00061
525.5 1.00061
526 1.00061
526.5 1.00061
527 1.00061
527.5 1.00061
528 1.00061
528.5 1.00061
529 1.00061
529.5 1.00061
530 1.00061
530.5 1.00061
531 1.00061
531.5 1.00061
532 1.00061
532.5 1.00061
533 1.00061
533.5 1.00061
534 1.00061
534.5 1.0006
535 1.0006
535.5 1.0006
536 1.0006
536.5 1.0006
537 1.0006
537.5 1.0006
538 1.0006
538.5 1.0006
539 1.0006
539.5 1.0006
540 1.0006
540.5 1.0006
541 1.0006
541.5 1.0006
542 1.0006
542.5 1.0006
543 1.0006
543.5 1.00059
544 1.00059
544.5 1.00059
545 1.00059
545.5 1.00059
546 1.00059
546.5 1.00059
547 1.00059
547.5 1.00059
548 1.00059
548.5 1.00059
549 1.00059
549.5 1.00059
550 1.00059
550.5 1.00059
551 1.00058
551.5 1.00058
552 1.00058
552.5 1.00058
553 1.00058
553.5 1.00058
554 1.00058
554.5 1.00058
555 1.00058
555.5 1.00058
556 1.00058
556.5 1.00058
557 1.00058
557.5 1.00058
558 1.00057
558.5 1.00057
559 1.00057
559.5 1.00057
560 1.00057
560.5 1.00057
561 1.00057
561.5 1.00057
562 1.00057
562.5 1.00057
563 1.00057
563.5 1.00057
564 1.00056
564.5 1.00056
565 1.00056
565.5 1.00056
566 1.00056
566.5 1.00056
567 1.00056
567.5 1.00056
568 1.00056
568.5 1.00056
569 1.00056
569.5 1.00055
570 1.00055
570.5 1.00055
571 1.00055
571.5 1.00055
572 1.00055
572.5 1.00055
573 1.00055
573.5 1.00055
574 1.00055
574.5 1.00055
575 1.00054
575.5 1.00054
576 1.00054
576.5 1.00054
577 1.00054
577.5 1.00054
578 1.00054
578.5 1.00054
579 1.00054
579.5 1.00054
580 1.00054
580.5 1.00053
581 1.00053
581.5 1.00053
582 1.00053
582.5 1.00053
583 1.00053
583.5 1.00053
584 1.00053
584.5 1.00053
585 1.00053
585.5 1.00052
586 1.00052
586.5 1.00052
587 1.00052
587.5 1.00052
588 1.00052
588.5 1.00052
589 1.00052
589.5 1.00052
590 1.00052
590.5 1.00051
591 1.00051
591.5 1.00051
592 1.00051
592.5 1.00051
593 1.00051
593.5 1.00051
594 1.00051
594.5 1.00051
595 1.00051
595.5 1.0005
596 1.0005
596.5 1.0005
597 1.0005
597.5 1.0005
598 1.0005
598.5 1.0005
599 1.0005
599.5 1.0005
600 1.0005
600.5 1.00049
601 1.00049
601.5 1.00049
602 1.00049
602.5 1.00049
603 1.00049
603.5 1.00049
604 1.00049
604.5 1.00049
605 1.00049
605.5 1.00048
606 1.00048
606.5 1.00048
607 1.00048
607.5 1.00048
608 1.00048
608.5 1.00048
609 1.00048
609.5 1.00048
610 1.00047
610.5 1.00047
611 1.00047
611.5 1.00047
612 1.00047
612.5 1.00047
613 1.00047
613.5 1.00047
614 1.00047
614.5 1.00047
615 1.00046
615.5 1.00046
616 1.00046
616.5 1.00046
617 1.00046
617.5 1.00046
618 1.00046
618.5 1.00046
619 1.00046
619.5 1.00046
620 1.00045
620.5 1.00045
621 1.00045
621.5 1.00045
622 1.00045
622.5 1.00045
623 1.00045
623.5 1.00045
624 1.00045
624.5 1.00045
625 1.00044
625.5 1.00044
626 1.00044
626.5 1.00044
627 1.00044
627.5 1.00044
628 1.00044
628.5 1.00044
629 1.00044
629.5 1.00044
630 1.00043
630.5 1.00043
631 1.00043
631.5 1.00043
632 1.00043
632.5 1.00043
633 1.00043
633.5 1.00043
634 1.00043
634.5 1.00043
635 1.00042
635.5 1.00042
636 1.00042
636.5 1.00042
637 1.00042
637.5 1.00042
638 1.00042
638.5 1.00042
639 1.00042
639.5 1.00042
640 1.00041
640.5 1.00041
641 1.00041
641.5 1.00041
642 1.00041
642.5 1.00041
643 1.00041
643.5 1.00041
644 1.00041
644.5 1.00041
645 1.0004
645.5 1.0004
646 1.0004
646.5 1.0004
647 1.0004
647.5 1.0004
648 1.0004
648.5 1.0004
649 1.0004
649.5 1.0004
650 1.00039
650.5 1.00039
651 1.00039
651.5 1.00039
652 1.00039
652.5 1.00039
653 1.00039
653.5 1.00039
654 1.00039
654.5 1.00039
655 1.00039
655.5 1.00038
656 1.00038
656.5 1.00038
657 1.00038
657.5 1.00038
658 1.00038
658.5 1.00038
659 1.00038
659.5 1.00038
660 1.00038
660.5 1.00038
661 1.00037
661.5 1.00037
662 1.00037
662.5 1.00037
663 1.00037
663.5 1.00037
664 1.00037
664.5 1.00037
665 1.00037
665.5 1.00037
666 1.00037
666.5 1.00036
667 1.00036
667.5 1.00036
668 1.00036
668.5 1.00036
669 1.00036
669.5 1.00036
670 1.00036
670.5 1.00036
671 1.00036
671.5 1.00036
672 1.00035
672.5 1.00035
673 1.00035
673.5 1.00035
674 1.00035
674.5 1.00035
675 1.00035
675.5 1.00035
676 1.00035
676.5 1.00035
677 1.00035
677.5 1.00034
678 1.00034
678.5 1.00034
679 1.00034
679.5 1.00034
680 1.00034
680.5 1.00034
681 1.00034
681.5 1.00034
682 1.00034
682.5 1.00034
683 1.00034
683.5 1.00033
684 1.00033
684.5 1.00033
685 1.00033
685.5 1.00033
686 1.00033
686.5 1.00033
687 1.00033
687.5 1.00033
688 1.00033
688.5 1.00033
689 1.00033
689.5 1.00032
690 1.00032
690.5 1.00032
691 1.00032
691.5 1.00032
692 1.00032
692.5 1.00032
693 1.00032
693.5 1.00032
694 1.00032
694.5 1.00032
695 1.00032
695.5 1.00031
696 1.00031
696.5 1.00031
697 1.00031
697.5 1.00031
698 1.00031
698.5 1.00031
699 1.00031
699.5 1.00031
700 1.00031
700.5 1.00031
701 1.00031
701.5 1.00031
702 1.0003
702.5 1.0003
703 1.0003
703.5 1.0003
704 1.0003
704.5 1.0003
705 1.0003
705.5 1.0003
706 1.0003
706.5 1.0003
707 1.0003
707.5 1.0003
708 1.0003
708.5 1.00029
709 1.00029
709.5 1.00029
710 1.00029
710.5 1.00029
711 1.00029
711.5 1.00029
712 1.00029
712.5 1.00029
713 1.00029
713.5 1.00029
714 1.00029
714.5 1.00029
715 1.00028
715.5 1.00028
716 1.00028
716.5 1.00028
717 1.00028
717.5 1.00028
718 1.00028
718.5 1.00028
719 1.00028
719.5 1.00028
720 1.00028
720.5 1.00028
721 1.00028
721.5 1.00028
722 1.00027
722.5 1.00027
723 1.00027
723.5 1.00027
724 1.00027
724.5 1.00027
725 1.00027
725.5 1.00027
726 1.00027
726.5 1.00027
727 1.00027
727.5 1.00027
728 1.00027
728.5 1.00027
729 1.00027
729.5 1.00026
730 1.00026
730.5 1.00026
731 1.00026
731.5 1.00026
732 1.00026
732.5 1.00026
733 1.00026
733.5 1.00026
734 1.00026
734.5 1.00026
735 1.00026
735.5 1.00026
736 1.00026
736.5 1.00026
737 1.00025
737.5 1.00025
738 1.00025
738.5 1.00025
739 1.00025
739.5 1.00025
740 1.00025
740.5 1.00025
741 1.00025
741.5 1.00025
742 1.00025
742.5 1.00025
743 1.00025
743.5 1.00025
744 1.00025
744.5 1.00024
745 1.00024
745.5 1.00024
746 1.00024
746.5 1.00024
747 1.00024
747.5 1.00024
748 1.00024
748.5 1.00024
749 1.00024
749.5 1.00024
750 1.00024
750.5 1.00024
751 1.00024
751.5 1.00024
752 1.00024
752.5 1.00024
753 1.00023
753.5 1.00023
754 1.00023
754.5 1.00023
755 1.00023
755.5 1.00023
756 1.00023
756.5 1.00023
757 1.00023
757.5 1.00023
758 1.00023
758.5 1.00023
759 1.00023
759.5 1.00023
760 1.00023
760.5 1.00023
761 1.00023
761.5 1.00022
762 1.00022
762.5 1.00022
763 1.00022
763.5 1.00022
764 1.00022
764.5 1.00022
765 1.00022
765.5 1.00022
766 1.00022
766.5 1.00022
767 1.00022
767.5 1.00022
768 1.00022
768.5 1.00022
769 1.00022
769.5 1.00022
770 1.00022
770.5 1.00021
771 1.00021
771.5 1.00021
772 1.00021
772.5 1.00021
773 1.00021
773.5 1.00021
774 1.00021
774.5 1.00021
775 1.00021
775.5 1.00021
776 1.00021
776.5 1.00021
777 1.00021
777.5 1.00021
778 1.00021
778.5 1.00021
779 1.00021
779.5 1.00021
780 1.0002
780.5 1.0002
781 1.0002
781.5 1.0002
782 1.0002
782.5 1.0002
783 1.0002
783.5 1.0002
784 1.0002
784.5 1.0002
785 1.0002
785.5 1.0002
786 1.0002
786.5 1.0002
787 1.0002
787.5 1.0002
788 1.0002
788.5 1.0002
789 1.0002
789.5 1.00019
790 1.00019
790.5 1.00019
791 1.00019
791.5 1.00019
792 1.00019
792.5 1.00019
793 1.00019
793.5 1.00019
794 1.00019
794.5 1.00019
795 1.00019
795.5 1.00019
796 1.00019
796.5 1.00019
797 1.00019
797.5 1.00019
798 1.00019
798.5 1.00019
799 1.00019
799.5 1.00019
800 1.00019
800.5 1.00018
801 1.00018
801.5 1.00018
802 1.00018
802.5 1.00018
803 1.00018
803.5 1.00018
804 1.00018
804.5 1.00018
805 1.00018
805.5 1.00018
806 1.00018
806.5 1.00018
807 1.00018
807.5 1.00018
808 1.00018
808.5 1.00018
809 1.00018
809.5 1.00018
810 1.00018
810.5 1.00018
811 1.00018
811.5 1.00017
812 1.00017
812.5 1.00017
813 1.00017
813.5 1.00017
814 1.00017
814.5 1.00017
815 1.00017
815.5 1.00017
816 1.00017
816.5 1.00017
817 1.00017
817.5 1.00017
818 1.00017
818.5 1.00017
819 1.00017
819.5 1.00017
820 1.00017
820.5 1.00017
821 1.00017
821.5 1.00017
822 1.00017
822.5 1.00017
823 1.00017
823.5 1.00016
824 1.00016
824.5 1.00016
825 1.00016
825.5 1.00016
826 1.00016
826.5 1.00016
827 1.00016
827.5 1.00016
828 1.00016
828.5 1.00016
829 1.00016
829.5 1.00016
830 1.00016
830.5 1.00016
831 1.00016
831.5 1.00016
832 1.00016
832.5 1.00016
833 1.00016
833.5 1.00016
834 1.00016
834.5 1.00016
835 1.00016
835.5 1.00016
836 1.00015
836.5 1.00015
837 1.00015
837.5 1.00015
838 1.00015
838.5 1.00015
839 1.00015
839.5 1.00015
840 1.00015
840.5 1.00015
841 1.00015
841.5 1.00015
842 1.00015
842.5 1.00015
843 1.00015
843.5 1.00015
844 1.00015
844.5 1.00015
845 1.00015
845.5 1.00015
846 1.00015
846.5 1.00015
847 1.00015
847.5 1.00015
848 1.00015
848.5 1.00015
849 1.00015
849.5 1.00015
850 1.00014
850.5 1.00014
851 1.00014
851.5 1.00014
852 1.00014
852.5 1.00014
853 1.00014
853.5 1.00014
854 1.00014
854.5 1.00014
855 1.00014
855.5 1.00014
856 1.00014
856.5 1.00014
857 1.00014
857.5 1.00014
858 1.00014
858.5 1.00014
859 1.00014
859.5 1.00014
860 1.00014
860.5 1.00014
861 1.00014
861.5 1.00014
862 1.00014
862.5 1.00014
863 1.00014
863.5 1.00014
864 1.00014
864.5 1.00014
865 1.00013
865.5 1.00013
866 1.00013
866.5 1.00013
867 1.00013
867.5 1.00013
868 1.00013
868.5 1.00013
869 1.00013
869.5 1.00013
870 1.00013
870.5 1.00013
871 1.00013
871.5 1.00013
872 1.00013
872.5 1.00013
873 1.00013
873.5 1.00013
874 1.00013
874.5 1.00013
875 1.00013
875.5 1.00013
876 1.00013
876.5 1.00013
877 1.00013
877.5 1.00013
878 1.00013
878.5 1.00013
879 1.00013
879.5 1.00013
880 1.00013
880.5 1.00013
881 1.00013
881.5 1.00012
882 1.00012
882.5 1.00012
883 1.00012
883.5 1.00012
884 1.00012
884.5 1.00012
885 1.00012
885.5 1.00012
886 1.00012
886.5 1.00012
887 1.00012
887.5 1.00012
888 1.00012
888.5 1.00012
889 1.00012
889.5 1.00012
890 1.00012
890.5 1.00012
891 1.00012
891.5 1.00012
892 1.00012
892.5 1.00012
893 1.00012
893.5 1.00012
894 1.00012
894.5 1.00012
895 1.00012
895.5 1.00012
896 1.00012
896.5 1.00012
897 1.00012
897.5 1.00012
898 1.00012
898.5 1.00012
899 1.00012
899.5 1.00011
900 1.00011
900.5 1.00011
901 1.00011
901.5 1.00011
902 1.00011
902.5 1.00011
903 1.00011
903.5 1.00011
904 1.00011
904.5 1.00011
905 1.00011
905.5 1.00011
906 1.00011
906.5 1.00011
907 1.00011
907.5 1.00011
908 1.00011
908.5 1.00011
909 1.00011
909.5 1.00011
910 1.00011
910.5 1.00011
911 1.00011
911.5 1.00011
912 1.00011
912.5 1.00011
913 1.00011
913.5 1.00011
914 1.00011
914.5 1.00011
915 1.00011
915.5 1.00011
916 1.00011
916.5 1.00011
917 1.00011
917.5 1.00011
918 1.00011
918.5 1.00011
919 1.00011
919.5 1.0001
920 1.0001
920.5 1.0001
921 1.0001
921.5 1.0001
922 1.0001
922.5 1.0001
923 1.0001
923.5 1.0001
924 1.0001
924.5 1.0001
925 1.0001
925.5 1.0001
926 1.0001
926.5 1.0001
927 1.0001
927.5 1.0001
928 1.0001
928.5 1.0001
929 1.0001
929.5 1.0001
930 1.0001
930.5 1.0001
931 1.0001
931.5 1.0001
932 1.0001
932.5 1.0001
933 1.0001
933.5 1.0001
934 1.0001
934.5 1.0001
935 1.0001
935.5 1.0001
936 1.0001
936.5 1.0001
937 1.0001
937.5 1.0001
938 1.0001
938.5 1.0001
939 1.0001
939.5 1.0001
940 1.0001
940.5 1.0001
941 1.0001
941.5 1.0001
942 1.00009
942.5 1.00009
943 1.00009
943.5 1.00009
944 1.00009
944.5 1.00009
945 1.00009
945.5 1.00009
946 1.00009
946.5 1.00009
947 1.00009
947.5 1.00009
948 1.00009
948.5 1.00009
949 1.00009
949.5 1.00009
950 1.00009
950.5 1.00009
951 1.00009
951.5 1.00009
952 1.00009
952.5 1.00009
953 1.00009
953.5 1.00009
954 1.00009
954.5 1.00009
955 1.00009
955.5 1.00009
956 1.00009
956.5 1.00009
957 1.00009
957.5 1.00009
958 1.00009
958.5 1.00009
959 1.00009
959.5 1.00009
960 1.00009
960.5 1.00009
961 1.00009
961.5 1.00009
962 1.00009
962.5 1.00009
963 1.00009
963.5 1.00009
964 1.00009
964.5 1.00009
965 1.00009
965.5 1.00009
966 1.00009
966.5 1.00009
967 1.00009
967.5 1.00008
968 1.00008
968.5 1.00008
969 1.00008
969.5 1.00008
970 1.00008
970.5 1.00008
971 1.00008
971.5 1.00008
972 1.00008
972.5 1.00008
973 1.00008
973.5 1.00008
974 1.00008
974.5 1.00008
975 1.00008
975.5 1.00008
976 1.00008
976.5 1.00008
977 1.00008
977.5 1.00008
978 1.00008
978.5 1.00008
979 1.00008
979.5 1.00008
980 1.00008
980.5 1.00008
981 1.00008
981.5 1.00008
982 1.00008
982.5 1.00008
983 1.00008
983.5 1.00008
984 1.00008
984.5 1.00008
985 1.00008
985.5 1.00008
986 1.00008
986.5 1.00008
987 1.00008
987.5 1.00008
988 1.00008
988.5 1.00008
989 1.00008
989.5 1.00008
990 1.00008
990.5 1.00008
991 1.00008
991.5 1.00008
992 1.00008
992.5 1.00008
993 1.00008
993.5 1.00008
994 1.00008
994.5 1.00008
995 1.00008
995.5 1.00008
996 1.00008
996.5 1.00008
997 1.00008
997.5 1.00007
998 1.00007
998.5 1.00007
999 1.00007
999.5 1.00007
1000 1.00007
1000.5 1.00007
1001 1.00007
1001.5 1.00007
1002 1.00007
1002.5 1.00007
1003 1.00007
1003.5 1.00007
1004 1.00007
1004.5 1.00007
1005 1.00007
1005.5 1.00007
1006 1.00007
1006.5 1.00007
1007 1.00007
1007.5 1.00007
1008 1.00007
1008.5 1.00007
1009 1.00007
1009.5 1.00007
1010 1.00007
1010.5 1.00007
1011 1.00007
1011.5 1.00007
1012 1.00007
1012.5 1.00007
1013 1.00007
1013.5 1.00007
1014 1.00007
1014.5 1.00007
1015 1.00007
1015.5 1.00007
1016 1.00007
1016.5 1.00007
1017 1.00007
1017.5 1.00007
1018 1.00007
1018.5 1.00007
1019 1.00007
1019.5 1.00007
1020 1.00007
1020.5 1.00007
1021 1.00007
1021.5 1.00007
1022 1.00007
1022.5 1.00007
1023 1.00007
1023.5 1.00007
1024 1.00007
1024.5 1.00007
1025 1.00007
1025.5 1.00007
1026 1.00007
1026.5 1.00007
1027 1.00007
1027.5 1.00007
1028 1.00007
1028.5 1.00007
1029 1.00007
1029.5 1.00007
1030 1.00007
1030.5 1.00007
1031 1.00007
1031.5 1.00007
1032 1.00007
1032.5 1.00006
1033 1.00006
1033.5 1.00006
1034 1.00006
1034.5 1.00006
1035 1.00006
1035.5 1.00006
1036 1.00006
1036.5 1.00006
1037 1.00006
1037.5 1.00006
1038 1.00006
1038.5 1.00006
1039 1.00006
1039.5 1.00006
1040 1.00006
1040.5 1.00006
1041 1.00006
1041.5 1.00006
1042 1.00006
1042.5 1.00006
1043 1.00006
1043.5 1.00006
1044 1.00006
1044.5 1.00006
1045 1.00006
1045.5 1.00006
1046 1.00006
1046.5 1.00006
1047 1.00006
1047.5 1.00006
1048 1.00006
1048.5 1.00006
1049 1.00006
1049.5 1.00006
1050 1.00006
1050.5 1.00006
1051 1.00006
1051.5 1.00006
1052 1.00006
1052.5 1.00006
1053 1.00006
1053.5 1.00006
1054 1.00006
1054.5 1.00006
1055 1.00006
1055.5 1.00006
1056 1.00006
1056.5 1.00006
1057 1.00006
1057.5 1.00006
1058 1.00006
1058.5 1.00006
1059 1.00006
1059.5 1.00006
1060 1.00006
1060.5 1.00006
1061 1.00006
1061.5 1.00006
1062 1.00006
1062.5 1.00006
1063 1.00006
1063.5 1.00006
1064 1.00006
1064.5 1.00006
1065 1.00006
1065.5 1.00006
1066 1.00006
1066.5 1.00006
1067 1.00006
1067.5 1.00006
1068 1.00006
1068.5 1.00006
1069 1.00006
1069.5 1.00006
1070 1.00006
1070.5 1.00006
1071 1.00006
1071.5 1.00006
1072 1.00006
1072.5 1.00006
1073 1.00006
1073.5 1.00006
1074 1.00006
1074.5 1.00006
1075 1.00005
1075.5 1.00005
1076 1.00005
1076.5 1.00005
1077 1.00005
1077.5 1.00005
1078 1.00005
1078.5 1.00005
1079 1.00005
1079.5 1.00005
1080 1.00005
1080.5 1.00005
1081 1.00005
1081.5 1.00005
1082 1.00005
1082.5 1.00005
1083 1.00005
1083.5 1.00005
1084 1.00005
1084.5 1.00005
1085 1.00005
1085.5 1.00005
1086 1.00005
1086.5 1.00005
1087 1.00005
1087.5 1.00005
1088 1.00005
1088.5 1.00005
1089 1.00005
1089.5 1.00005
1090 1.00005
1090.5 1.00005
1091 1.00005
1091.5 1.00005
1092 1.00005
1092.5 1.00005
1093 1.00005
1093.5 1.00005
1094 1.00005
1094.5 1.00005
1095 1.00005
1095.5 1.00005
1096 1.00005
1096.5 1.00005
1097 1.00005
1097.5 1.00005
1098 1.00005
1098.5 1.00005
1099 1.00005
1099.5 1.00005
1100 1.00005
1100.5 1.00005
1101 1.00005
1101.5 1.00005
1102 1.00005
1102.5 1.00005
1103 1.00005
1103.5 1.00005
1104 1.00005
1104.5 1.00005
1105 1.00005
1105.5 1.00005
1106 1.00005
1106.5 1.00005
1107 1.00005
1107.5 1.00005
1108 1.00005
1108.5 1.00005
1109 1.00005
1109.5 1.00005
1110 1.00005
1110.5 1.00005
1111 1.00005
1111.5 1.00005
1112 1.00005
1112.5 1.00005
1113 1.00005
1113.5 1.00005
1114 1.00005
1114.5 1.00005
1115 1.00005
1115.5 1.00005
1116 1.00005
1116.5 1.00005
1117 1.00005
1117.5 1.00005
1118 1.00005
1118.5 1.00005
1119 1.00005
1119.5 1.00005
1120 1.00005
1120.5 1.00005
1121 1.00005
1121.5 1.00005
1122 1.00005
1122.5 1.00005
1123 1.00005
1123.5 1.00005
1124 1.00005
1124.5 1.00005
1125 1.00005
1125.5 1.00005
1126 1.00005
1126.5 1.00005
1127 1.00005
1127.5 1.00005
1128 1.00005
1128.5 1.00004
1129 1.00004
1129.5 1.00004
1130 1.00004
1130.5 1.00004
1131 1.00004
1131.5 1.00004
1132 1.00004
1132.5 1.00004
1133 1.00004
1133.5 1.00004
1134 1.00004
1134.5 1.00004
1135 1.00004
1135.5 1.00004
1136 1.00004
1136.5 1.00004
1137 1.00004
1137.5 1.00004
1138 1.00004
1138.5 1.00004
1139 1.00004
1139.5 1.00004
1140 1.00004
1140.5 1.00004
1141 1.00004
1141.5 1.00004
1142 1.00004
1142.5 1.00004
1143 1.00004
1143.5 1.00004
1144 1.00004
1144.5 1.00004
1145 1.00004
1145.5 1.00004
1146 1.00004
1146.5 1.00004
1147 1.00004
1147.5 1.00004
1148 1.00004
1148.5 1.00004
1149 1.00004
1149.5 1.00004
1150 1.00004
1150.5 1.00004
1151 1.00004
1151.5 1.00004
1152 1.00004
1152.5 1.00004
1153 1.00004
1153.5 1.00004
1154 1.00004
1154.5 1.00004
1155 1.00004
1155.5 1.00004
1156 1.00004
1156.5 1.00004
1157 1.00004
1157.5 1.00004
1158 1.00004
1158.5 1.00004
1159 1.00004
1159.5 1.00004
1160 1.00004
1160.5 1.00004
1161 1.00004
1161.5 1.00004
1162 1.00004
1162.5 1.00004
1163 1.00004
1163.5 1.00004
1164 1.00004
1164.5 1.00004
1165 1.00004
1165.5 1.00004
1166 1.00004
1166.5 1.00004
1167 1.00004
1167.5 1.00004
1168 1.00004
1168.5 1.00004
1169 1.00004
1169.5 1.00004
1170 1.00004
1170.5 1.00004
1171 1.00004
1171.5 1.00004
1172 1.00004
1172.5 1.00004
1173 1.00004
1173.5 1.00004
1174 1.00004
1174.5 1.00004
1175 1.00004
1175.5 1.00004
1176 1.00004
1176.5 1.00004
1177 1.00004
1177.5 1.00004
1178 1.00004
1178.5 1.00004
1179 1.00004
1179.5 1.00004
1180 1.00004
1180.5 1.00004
1181 1.00004
1181.5 1.00004
1182 1.00004
1182.5 1.00004
1183 1.00004
1183.5 1.00004
1184 1.00004
1184.5 1.00004
1185 1.00004
1185.5 1.00004
1186 1.00004
1186.5 1.00004
1187 1.00004
1187.5 1.00004
1188 1.00004
1188.5 1.00004
1189 1.00004
1189.5 1.00004
1190 1.00004
1190.5 1.00004
1191 1.00004
1191.5 1.00004
1192 1.00004
1192.5 1.00004
1193 1.00004
1193.5 1.00004
1194 1.00004
1194.5 1.00004
1195 1.00004
1195.5 1.00004
1196 1.00004
1196.5 1.00004
1197 1.00004
1197.5 1.00004
1198 1.00004
1198.5 1.00004
1199 1.00004
1199.5 1.00003
1200 1.00003
1200.5 1.00003
1201 1.00003
1201.5 1.00003
1202 1.00003
1202.5 1.00003
1203 1.00003
1203.5 1.00003
1204 1.00003
1204.5 1.00003
1205 1.00003
1205.5 1.00003
1206 1.00003
1206.5 1.00003
1207 1.00003
1207.5 1.00003
1208 1.00003
1208.5 1.00003
1209 1.00003
1209.5 1.00003
1210 1.00003
1210.5 1.00003
1211 1.00003
1211.5 1.00003
1212 1.00003
1212.5 1.00003
1213 1.00003
1213.5 1.00003
1214 1.00003
1214.5 1.00003
1215 1.00003
1215.5 1.00003
1216 1.00003
1216.5 1.00003
1217 1.00003
1217.5 1.00003
1218 1.00003
1218.5 1.00003
1219 1.00003
1219.5 1.00003
1220 1.00003
1220.5 1.00003
1221 1.00003
1221.5 1.00003
1222 1.00003
1222.5 1.00003
1223 1.00003
1223.5 1.00003
1224 1.00003
1224.5 1.00003
1225 1.00003
1225.5 1.00003
1226 1.00003
1226.5 1.00003
1227 1.00003
1227.5 1.00003
1228 1.00003
1228.5 1.00003
1229 1.00003
1229.5 1.00003
1230 1.00003
1230.5 1.00003
1231 1.00003
1231.5 1.00003
1232 1.00003
1232.5 1.00003
1233 1.00003
1233.5 1.00003
1234 1.00003
1234.5 1.00003
1235 1.00003
1235.5 1.00003
1236 1.00003
1236.5 1.00003
1237 1.00003
1237.5 1.00003
1238 1.00003
1238.5 1.00003
1239 1.00003
1239.5 1.00003
1240 1.00003
1240.5 1.00003
1241 1.00003
1241.5 1.00003
1242 1.00003
1242.5 1.00003
1243 1.00003
1243.5 1.00003
1244 1.00003
1244.5 1.00003
1245 1.00003
1245.5 1.00003
1246 1.00003
1246.5 1.00003
1247 1.00003
1247.5 1.00003
1248 1.00003
1248.5 1.00003
1249 1.00003
1249.5 1.00003
1250 1.00003
1250.5 1.00003
1251 1.00003
1251.5 1.00003
1252 1.00003
1252.5 1.00003
1253 1.00003
1253.5 1.00003
1254 1.00003
1254.5 1.00003
1255 1.00003
1255.5 1.00003
1256 1.00003
1256.5 1.00003
1257 1.00003
1257.5 1.00003
1258 1.00003
1258.5 1.00003
1259 1.00003
1259.5 1.00003
1260 1.00003
1260.5 1.00003
1261 1.00003
1261.5 1.00003
1262 1.00003
1262.5 1.00003
1263 1.00003
1263.5 1.00003
1264 1.00003
1264.5 1.00003
1265 1.00003
1265.5 1.00003
1266 1.00003
1266.5 1.00003
1267 1.00003
1267.5 1.00003
1268 1.00003
1268.5 1.00003
1269 1.00003
1269.5 1.00003
1270 1.00003
1270.5 1.00003
1271 1.00003
1271.5 1.00003
1272 1.00003
1272.5 1.00003
1273 1.00003
1273.5 1.00003
1274 1.00003
1274.5 1.00003
1275 1.00003
1275.5 1.00003
1276 1.00003
1276.5 1.00003
1277 1.00003
1277.5 1.00003
1278 1.00003
1278.5 1.00003
1279 1.00003
1279.5 1.00003
1280 1.00003
1280.5 1.00003
1281 1.00003
1281.5 1.00003
1282 1.00003
1282.5 1.00003
1283 1.00003
1283.5 1.00003
1284 1.00003
1284.5 1.00003
1285 1.00003
1285.5 1.00003
1286 1.00003
1286.5 1.00003
1287 1.00003
1287.5 1.00003
1288 1.00003
1288.5 1.00003
1289 1.00003
1289.5 1.00003
1290 1.00003
1290.5 1.00003
1291 1.00003
1291.5 1.00003
1292 1.00003
1292.5 1.00003
1293 1.00003
1293.5 1.00003
1294 1.00003
1294.5 1.00003
1295 1.00003
1295.5 1.00003
1296 1.00003
1296.5 1.00003
1297 1.00003
1297.5 1.00003
1298 1.00003
1298.5 1.00003
1299 1.00003
1299.5 1.00003
1300 1.00003
1300.5 1.00003
1301 1.00003
1301.5 1.00003
1302 1.00002
1302.5 1.00002
1303 1.00002
1303.5 1.00002
1304 1.00002
1304.5 1.00002
1305 1.00002
1305.5 1.00002
1306 1.00002
1306.5 1.00002
1307 1.00002
1307.5 1.00002
1308 1.00002
1308.5 1.00002
1309 1.00002
1309.5 1.00002
1310 1.00002
1310.5 1.00002
1311 1.00002
1311.5 1.00002
1312 1.00002
1312.5 1.00002
1313 1.00002
1313.5 1.00002
1314 1.00002
1314.5 1.00002
1315 1.00002
1315.5 1.00002
1316 1.00002
1316.5 1.00002
1317 1.00002
1317.5 1.00002
1318 1.00002
1318.5 1.00002
1319 1.00002
1319.5 1.00002
1320 1.00002
1320.5 1.00002
1321 1.00002
1321.5 1.00002
1322 1.00002
1322.5 1.00002
1323 1.00002
1323.5 1.00002
1324 1.00002
1324.5 1.00002
1325 1.00002
1325.5 1.00002
1326 1.00002
1326.5 1.00002
1327 1.00002
1327.5 1.00002
1328 1.00002
1328.5 1.00002
1329 1.00002
1329.5 1.00002
1330 1.00002
1330.5 1.00002
1331 1.00002
1331.5 1.00002
1332 1.00002
1332.5 1.00002
1333 1.00002
1333.5 1.00002
1334 1.00002
1334.5 1.00002
1335 1.00002
1335.5 1.00002
1336 1.00002
1336.5 1.00002
1337 1.00002
1337.5 1.00002
1338 1.00002
1338.5 1.00002
1339 1.00002
1339.5 1.00002
1340 1.00002
1340.5 1.00002
1341 1.00002
1341.5 1.00002
1342 1.00002
1342.5 1.00002
1343 1.00002
1343.5 1.00002
1344 1.00002
1344.5 1.00002
1345 1.00002
1345.5 1.00002
1346 1.00002
1346.5 1.00002
1347 1.00002
1347.5 1.00002
1348 1.00002
1348.5 1.00002
1349 1.00002
1349.5 1.00002
1350 1.00002
1350.5 1.00002
1351 1.00002
1351.5 1.00002
1352 1.00002
1352.5 1.00002
1353 1.00002
1353.5 1.00002
1354 1.00002
1354.5 1.00002
1355 1.00002
1355.5 1.00002
1356 1.00002
1356.5 1.00002
1357 1.00002
1357.5 1.00002
1358 1.00002
1358.5 1.00002
1359 1.00002
1359.5 1.00002
1360 1.00002
1360.5 1.00002
1361 1.00002
1361.5 1.00002
1362 1.00002
1362.5 1.00002
1363 1.00002
1363.5 1.00002
1364 1.00002
1364.5 1.00002
1365 1.00002
1365.5 1.00002
1366 1.00002
1366.5 1.00002
1367 1.00002
1367.5 1.00002
1368 1.00002
1368.5 1.00002
1369 1.00002
1369.5 1.00002
1370 1.00002
1370.5 1.00002
1371 1.00002
1371.5 1.00002
1372 1.00002
1372.5 1.00002
1373 1.00002
1373.5 1.00002
1374 1.00002
1374.5 1.00002
1375 1.00002
1375.5 1.00002
1376 1.00002
1376.5 1.00002
1377 1.00002
1377.5 1.00002
1378 1.00002
1378.5 1.00002
1379 1.00002
1379.5 1.00002
1380 1.00002
1380.5 1.00002
1381 1.00002
1381.5 1.00002
1382 1.00002
1382.5 1.00002
1383 1.00002
1383.5 1.00002
1384 1.00002
1384.5 1.00002
1385 1.00002
1385.5 1.00002
1386 1.00002
1386.5 1.00002
1387 1.00002
1387.5 1.00002
1388 1.00002
1388.5 1.00002
1389 1.00002
1389.5 1.00002
1390 1.00002
1390.5 1.00002
1391 1.00002
1391.5 1.00002
1392 1.00002
1392.5 1.00002
1393 1.00002
1393.5 1.00002
1394 1.00002
1394.5 1.00002
1395 1.00002
1395.5 1.00002
1396 1.00002
1396.5 1.00002
1397 1.00002
1397.5 1.00002
1398 1.00002
1398.5 1.00002
1399 1.00002
1399.5 1.00002
1400 1.00002
1400.5 1.00002
1401 1.00002
1401.5 1.00002
1402 1.00002
1402.5 1.00002
1403 1.00002
1403.5 1.00002
1404 1.00002
1404.5 1.00002
1405 1.00002
1405.5 1.00002
1406 1.00002
1406.5 1.00002
1407 1.00002
1407.5 1.00002
1408 1.00002
1408.5 1.00002
1409 1.00002
1409.5 1.00002
1410 1.00002
1410.5 1.00002
1411 1.00002
1411.5 1.00002
1412 1.00002
1412.5 1.00002
1413 1.00002
1413.5 1.00002
1414 1.00002
1414.5 1.00002
1415 1.00002
1415.5 1.00002
1416 1.00002
1416.5 1.00002
1417 1.00002
1417.5 1.00002
1418 1.00002
1418.5 1.00002
1419 1.00002
1419.5 1.00002
1420 1.00002
1420.5 1.00002
1421 1.00002
1421.5 1.00002
1422 1.00002
1422.5 1.00002
1423 1.00002
1423.5 1.00002
1424 1.00002
1424.5 1.00002
1425 1.00002
1425.5 1.00002
1426 1.00002
1426.5 1.00002
1427 1.00002
1427.5 1.00002
1428 1.00002
1428.5 1.00002
1429 1.00002
1429.5 1.00002
1430 1.00002
1430.5 1.00002
1431 1.00002
1431.5 1.00002
1432 1.00002
1432.5 1.00002
1433 1.00002
1433.5 1.00002
1434 1.00002
1434.5 1.00002
1435 1.00002
1435.5 1.00002
1436 1.00002
1436.5 1.00002
1437 1.00002
1437.5 1.00002
1438 1.00002
1438.5 1.00002
1439 1.00002
1439.5 1.00002
1440 1.00002
1440.5 1.00002
1441 1.00002
1441.5 1.00002
1442 1.00002
1442.5 1.00002
1443 1.00002
1443.5 1.00002
1444 1.00002
1444.5 1.00002
1445 1.00002
1445.5 1.00002
1446 1.00002
1446.5 1.00002
1447 1.00002
1447.5 1.00002
1448 1.00002
1448.5 1.00002
1449 1.00002
1449.5 1.00002
1450 1.00002
1450.5 1.00002
1451 1.00002
1451.5 1.00002
1452 1.00002
1452.5 1.00002
1453 1.00002
1453.5 1.00002
1454 1.00002
1454.5 1.00002
1455 1.00002
1455.5 1.00002
1456 1.00002
1456.5 1.00002
1457 1.00002
1457.5 1.00002
1458 1.00002
1458.5 1.00002
1459 1.00002
1459.5 1.00002
1460 1.00002
1460.5 1.00002
1461 1.00002
1461.5 1.00002
1462 1.00002
1462.5 1.00002
1463 1.00002
1463.5 1.00002
1464 1.00002
1464.5 1.00002
1465 1.00002
1465.5 1.00002
1466 1.00002
1466.5 1.00002
1467 1.00002
1467.5 1.00002
1468 1.00002
1468.5 1.00002
1469 1.00002
1469.5 1.00002
1470 1.00002
1470.5 1.00002
1471 1.00002
1471.5 1.00002
1472 1.00002
1472.5 1.00002
1473 1.00002
1473.5 1.00002
1474 1.00002
1474.5 1.00002
1475 1.00001
1475.5 1.00001
1476 1.00001
1476.5 1.00001
1477 1.00001
1477.5 1.00001
1478 1.00001
1478.5 1.00001
1479 1.00001
1479.5 1.00001
1480 1.00001
1480.5 1.00001
1481 1.00001
1481.5 1.00001
1482 1.00001
1482.5 1.00001
1483 1.00001
1483.5 1.00001
1484 1.00001
1484.5 1.00001
1485 1.00001
1485.5 1.00001
1486 1.00001
1486.5 1.00001
1487 1.00001
1487.5 1.00001
1488 1.00001
1488.5 1.00001
1489 1.00001
1489.5 1.00001
1490 1.00001
1490.5 1.00001
1491 1.00001
1491.5 1.00001
1492 1.00001
1492.5 1.00001
1493 1.00001
1493.5 1.00001
1494 1.00001
1494.5 1.00001
1495 1.00001
1495.5 1.00001
1496 1.00001
1496.5 1.00001
1497 1.00001
1497.5 1.00001
1498 1.00001
1498.5 1.00001
1499 1.00001
1499.5 1.00001
1500 1.00001
1500.5 1.00001
1501 1.00001
1501.5 1.00001
1502 1.00001
1502.5 1.00001
1503 1.00001
1503.5 1.00001
1504 1.00001
1504.5 1.00001
1505 1.00001
1505.5 1.00001
1506 1.00001
1506.5 1.00001
1507 1.00001
1507.5 1.00001
1508 1.00001
1508.5 1.00001
1509 1.00001
1509.5 1.00001
1510 1.00001
1510.5 1.00001
1511 1.00001
1511.5 1.00001
1512 1.00001
1512.5 1.00001
1513 1.00001
1513.5 1.00001
1514 1.00001
1514.5 1.00001
1515 1.00001
1515.5 1.00001
1516 1.00001
1516.5 1.00001
1517 1.00001
1517.5 1.00001
1518 1.00001
1518.5 1.00001
1519 1.00001
1519.5 1.00001
1520 1.00001
1520.5 1.00001
1521 1.00001
1521.5 1.00001
1522 1.00001
1522.5 1.00001
1523 1.00001
1523.5 1.00001
1524 1.00001
1524.5 1.00001
1525 1.00001
1525.5 1.00001
1526 1.00001
1526.5 1.00001
1527 1.00001
1527.5 1.00001
1528 1.00001
1528.5 1.00001
1529 1.00001
1529.5 1.00001
1530 1.00001
1530.5 1.00001
1531 1.00001
1531.5 1.00001
1532 1.00001
1532.5 1.00001
1533 1.00001
1533.5 1.00001
1534 1.00001
1534.5 1.00001
1535 1.00001
1535.5 1.00001
1536 1.00001
1536.5 1.00001
1537 1.00001
1537.5 1.00001
1538 1.00001
1538.5 1.00001
1539 1.00001
1539.5 1.00001
1540 1.00001
1540.5 1.00001
1541 1.00001
1541.5 1.00001
1542 1.00001
1542.5 1.00001
1543 1.00001
1543.5 1.00001
1544 1.00001
1544.5 1.00001
1545 1.00001
1545.5 1.00001
1546 1.00001
1546.5 1.00001
1547 1.00001
1547.5 1.00001
1548 1.00001
1548.5 1.00001
1549 1.00001
1549.5 1.00001
1550 1.00001
1550.5 1.00001
1551 1.00001
1551.5 1.00001
1552 1.00001
1552.5 1.00001
1553 1.00001
1553.5 1.00001
1554 1.00001
1554.5 1.00001
1555 1.00001
1555.5 1.00001
1556 1.00001
1556.5 1.00001
1557 1.00001
1557.5 1.00001
1558 1.00001
1558.5 1.00001
1559 1.00001
1559.5 1.00001
1560 1.00001
1560.5 1.00001
1561 1.00001
1561.5 1.00001
1562 1.00001
1562.5 1.00001
1563 1.00001
1563.5 1.00001
1564 1.00001
1564.5 1.00001
1565 1.00001
1565.5 1.00001
1566 1.00001
1566.5 1.00001
1567 1.00001
1567.5 1.00001
1568 1.00001
1568.5 1.00001
1569 1.00001
1569.5 1.00001
1570 1.00001
1570.5 1.00001
1571 1.00001
1571.5 1.00001
1572 1.00001
1572.5 1.00001
1573 1.00001
1573.5 1.00001
1574 1.00001
1574.5 1.00001
1575 1.00001
1575.5 1.00001
1576 1.00001
1576.5 1.00001
1577 1.00001
1577.5 1.00001
1578 1.00001
1578.5 1.00001
1579 1.00001
1579.5 1.00001
1580 1.00001
1580.5 1.00001
1581 1.00001
1581.5 1.00001
1582 1.00001
1582.5 1.00001
1583 1.00001
1583.5 1.00001
1584 1.00001
1584.5 1.00001
1585 1.00001
1585.5 1.00001
1586 1.00001
1586.5 1.00001
1587 1.00001
1587.5 1.00001
1588 1.00001
1588.5 1.00001
1589 1.00001
1589.5 1.00001
1590 1.00001
1590.5 1.00001
1591 1.00001
1591.5 1.00001
1592 1.00001
1592.5 1.00001
1593 1.00001
1593.5 1.00001
1594 1.00001
1594.5 1.00001
1595 1.00001
1595.5 1.00001
1596 1.00001
1596.5 1.00001
1597 1.00001
1597.5 1.00001
1598 1.00001
1598.5 1.00001
1599 1.00001
1599.5 1.00001
1600 1.00001
1600.5 1.00001
1601 1.00001
1601.5 1.00001
1602 1.00001
1602.5 1.00001
1603 1.00001
1603.5 1.00001
1604 1.00001
1604.5 1.00001
1605 1.00001
1605.5 1.00001
1606 1.00001
1606.5 1.00001
1607 1.00001
1607.5 1.00001
1608 1.00001
1608.5 1.00001
1609 1.00001
1609.5 1.00001
1610 1.00001
1610.5 1.00001
1611 1.00001
1611.5 1.00001
1612 1.00001
1612.5 1.00001
1613 1.00001
1613.5 1.00001
1614 1.00001
1614.5 1.00001
1615 1.00001
1615.5 1.00001
1616 1.00001
1616.5 1.00001
1617 1.00001
1617.5 1.00001
1618 1.00001
1618.5 1.00001
1619 1.00001
1619.5 1.00001
1620 1.00001
1620.5 1.00001
1621 1.00001
1621.5 1.00001
1622 1.00001
1622.5 1.00001
1623 1.00001
1623.5 1.00001
1624 1.00001
1624.5 1.00001
1625 1.00001
1625.5 1.00001
1626 1.00001
1626.5 1.00001
1627 1.00001
1627.5 1.00001
1628 1.00001
1628.5 1.00001
1629 1.00001
1629.5 1.00001
1630 1.00001
1630.5 1.00001
1631 1.00001
1631.5 1.00001
1632 1.00001
1632.5 1.00001
1633 1.00001
1633.5 1.00001
1634 1.00001
1634.5 1.00001
1635 1.00001
1635.5 1.00001
1636 1.00001
1636.5 1.00001
1637 1.00001
1637.5 1.00001
1638 1.00001
1638.5 1.00001
1639 1.00001
1639.5 1.00001
1640 1.00001
1640.5 1.00001
1641 1.00001
1641.5 1.00001
1642 1.00001
1642.5 1.00001
1643 1.00001
1643.5 1.00001
1644 1.00001
1644.5 1.00001
1645 1.00001
1645.5 1.00001
1646 1.00001
1646.5 1.00001
1647 1.00001
1647.5 1.00001
1648 1.00001
1648.5 1.00001
1649 1.00001
1649.5 1.00001
1650 1.00001
1650.5 1.00001
1651 1.00001
1651.5 1.00001
1652 1.00001
1652.5 1.00001
1653 1.00001
1653.5 1.00001
1654 1.00001
1654.5 1.00001
1655 1.00001
1655.5 1.00001
1656 1.00001
1656.5 1.00001
1657 1.00001
1657.5 1.00001
1658 1.00001
1658.5 1.00001
1659 1.00001
1659.5 1.00001
1660 1.00001
1660.5 1.00001
1661 1.00001
1661.5 1.00001
1662 1.00001
1662.5 1.00001
1663 1.00001
1663.5 1.00001
1664 1.00001
1664.5 1.00001
1665 1.00001
1665.5 1.00001
1666 1.00001
1666.5 1.00001
1667 1.00001
1667.5 1.00001
1668 1.00001
1668.5 1.00001
1669 1.00001
1669.5 1.00001
1670 1.00001
1670.5 1.00001
1671 1.00001
1671.5 1.00001
1672 1.00001
1672.5 1.00001
1673 1.00001
1673.5 1.00001
1674 1.00001
1674.5 1.00001
1675 1.00001
1675.5 1.00001
1676 1.00001
1676.5 1.00001
1677 1.00001
1677.5 1.00001
1678 1.00001
1678.5 1.00001
1679 1.00001
1679.5 1.00001
1680 1.00001
1680.5 1.00001
1681 1.00001
1681.5 1.00001
1682 1.00001
1682.5 1.00001
1683 1.00001
1683.5 1.00001
1684 1.00001
1684.5 1.00001
1685 1.00001
1685.5 1.00001
1686 1.00001
1686.5 1.00001
1687 1.00001
1687.5 1.00001
1688 1.00001
1688.5 1.00001
1689 1.00001
1689.5 1.00001
1690 1.00001
1690.5 1.00001
1691 1.00001
1691.5 1.00001
1692 1.00001
1692.5 1.00001
1693 1.00001
1693.5 1.00001
1694 1.00001
1694.5 1.00001
1695 1.00001
1695.5 1.00001
1696 1.00001
1696.5 1.00001
1697 1.00001
1697.5 1.00001
1698 1.00001
1698.5 1.00001
1699 1.00001
1699.5 1.00001
1700 1.00001
1700.5 1.00001
1701 1.00001
1701.5 1.00001
1702 1.00001
1702.5 1.00001
1703 1.00001
1703.5 1.00001
1704 1.00001
1704.5 1.00001
1705 1.00001
1705.5 1.00001
1706 1.00001
1706.5 1.00001
1707 1.00001
1707.5 1.00001
1708 1.00001
1708.5 1.00001
1709 1.00001
1709.5 1.00001
1710 1.00001
1710.5 1.00001
1711 1.00001
1711.5 1.00001
1712 1.00001
1712.5 1.00001
1713 1.00001
1713.5 1.00001
1714 1.00001
1714.5 1.00001
1715 1.00001
1715.5 1.00001
1716 1.00001
1716.5 1.00001
1717 1.00001
1717.5 1.00001
1718 1.00001
1718.5 1.00001
1719 1.00001
1719.5 1.00001
1720 1.00001
1720.5 1.00001
1721 1.00001
1721.5 1.00001
1722 1.00001
1722.5 1.00001
1723 1.00001
1723.5 1.00001
1724 1.00001
1724.5 1.00001
1725 1.00001
1725.5 1.00001
1726 1.00001
1726.5 1.00001
1727 1.00001
1727.5 1.00001
1728 1.00001
1728.5 1.00001
1729 1.00001
1729.5 1.00001
1730 1.00001
1730.5 1.00001
1731 1.00001
1731.5 1.00001
1732 1.00001
1732.5 1.00001
1733 1.00001
1733.5 1.00001
1734 1.00001
1734.5 1.00001
1735 1.00001
1735.5 1.00001
1736 1.00001
1736.5 1.00001
1737 1.00001
1737.5 1.00001
1738 1.00001
1738.5 1.00001
1739 1.00001
1739.5 1.00001
1740 1.00001
1740.5 1.00001
1741 1.00001
1741.5 1.00001
1742 1.00001
1742.5 1.00001
1743 1.00001
1743.5 1.00001
1744 1.00001
1744.5 1.00001
1745 1.00001
1745.5 1.00001
1746 1.00001
1746.5 1.00001
1747 1.00001
1747.5 1.00001
1748 1.00001
1748.5 1.00001
1749 1.00001
1749.5 1.00001
1750 1.00001
1750.5 1.00001
1751 1.00001
1751.5 1.00001
1752 1.00001
1752.5 1.00001
1753 1.00001
1753.5 1.00001
1754 1.00001
1754.5 1.00001
1755 1.00001
1755.5 1.00001
1756 1.00001
1756.5 1.00001
1757 1.00001
1757.5 1.00001
1758 1.00001
1758.5 1.00001
1759 1.00001
1759.5 1.00001
1760 1.00001
1760.5 1.00001
1761 1.00001
1761.5 1.00001
1762 1.00001
1762.5 1.00001
1763 1.00001
1763.5 1.00001
1764 1.00001
1764.5 1.00001
1765 1.00001
1765.5 1.00001
1766 1.00001
1766.5 1.00001
1767 1.00001
1767.5 1.00001
1768 1.00001
1768.5 1.00001
1769 1.00001
1769.5 1.00001
1770 1.00001
1770.5 1.00001
1771 1.00001
1771.5 1.00001
1772 1.00001
1772.5 1.00001
1773 1.00001
1773.5 1.00001
1774 1.00001
1774.5 1.00001
1775 1.00001
1775.5 1.00001
1776 1.00001
1776.5 1.00001
1777 1.00001
1777.5 1.00001
1778 1.00001
1778.5 1.00001
1779 1.00001
1779.5 1.00001
1780 1.00001
1780.5 1.00001
1781 1.00001
1781.5 1.00001
1782 1.00001
1782.5 1.00001
1783 1.00001
1783.5 1.00001
1784 1.00001
1784.5 1.00001
1785 1.00001
1785.5 1.00001
1786 1.00001
1786.5 1.00001
1787 1.00001
1787.5 1.00001
1788 1.00001
1788.5 1.00001
1789 1.00001
1789.5 1.00001
1790 1.00001
1790.5 1.00001
1791 1.00001
1791.5 1.00001
1792 1.00001
1792.5 1.00001
1793 1.00001
1793.5 1.00001
1794 1.00001
1794.5 1.00001
1795 1.00001
1795.5 1.00001
1796 1.00001
1796.5 1.00001
1797 1.00001
1797.5 1.00001
1798 1.00001
1798.5 1.00001
1799 1.00001
1799.5 1.00001
1800 1.00001
1800.5 1.00001
1801 1.00001
1801.5 1.00001
1802 1.00001
1802.5 1.00001
1803 1.00001
1803.5 1.00001
1804 1.00001
1804.5 1.00001
1805 1.00001
1805.5 1.00001
1806 1.00001
1806.5 1.00001
1807 1.00001
1807.5 1.00001
1808 1.00001
1808.5 1.00001
1809 1.00001
1809.5 1.00001
1810 1.00001
1810.5 1.00001
1811 1.00001
1811.5 1.00001
1812 1.00001
1812.5 1.00001
1813 1.00001
1813.5 1.00001
1814 1.00001
1814.5 1.00001
1815 1.00001
1815.5 1.00001
1816 1.00001
1816.5 1.00001
1817 1.00001
1817.5 1.00001
1818 1.00001
1818.5 1.00001
1819 1.00001
1819.5 1.00001
1820 1.00001
1820.5 1.00001
1821 1.00001
1821.5 1.00001
1822 1.00001
1822.5 1.00001
1823 1.00001
1823.5 1.00001
1824 1.00001
1824.5 1.00001
1825 1.00001
1825.5 1.00001
1826 1.00001
1826.5 1.00001
1827 1.00001
1827.5 1.00001
1828 1.00001
1828.5 1.00001
1829 1.00001
1829.5 1.00001
1830 1.00001
1830.5 1.00001
1831 1.00001
1831.5 1.00001
1832 1.00001
1832.5 1.00001
1833 1.00001
1833.5 1.00001
1834 1.00001
1834.5 1.00001
1835 1.00001
1835.5 1.00001
1836 1.00001
1836.5 1.00001
1837 1.00001
1837.5 1.00001
1838 1.00001
1838.5 1.00001
1839 1.00001
1839.5 1.00001
1840 1.00001
1840.5 1.00001
1841 1.00001
1841.5 1.00001
1842 1.00001
1842.5 1.00001
1843 1.00001
1843.5 1.00001
1844 1.00001
1844.5 1.00001
1845 1.00001
1845.5 1.00001
1846 1.00001
1846.5 1.00001
1847 1.00001
1847.5 1.00001
1848 1.00001
1848.5 1.00001
1849 1.00001
1849.5 1.00001
1850 1.00001
1850.5 1.00001
1851 1.00001
1851.5 1.00001
1852 1.00001
1852.5 1.00001
1853 1.00001
1853.5 1.00001
1854 1.00001
1854.5 1.00001
1855 1.00001
1855.5 1.00001
1856 1.00001
1856.5 1.00001
1857 1.00001
1857.5 1.00001
1858 1.00001
1858.5 1.00001
1859 1.00001
1859.5 1.00001
1860 1.00001
1860.5 1.00001
1861 1.00001
1861.5 1.00001
1862 1.00001
1862.5 1.00001
1863 1.00001
1863.5 1.00001
1864 1.00001
1864.5 1.00001
1865 1.00001
1865.5 1.00001
1866 1.00001
1866.5 1.00001
1867 1.00001
1867.5 1.00001
1868 1.00001
1868.5 1.00001
1869 1.00001
1869.5 1.00001
1870 1.00001
1870.5 1.00001
1871 1.00001
1871.5 1.00001
1872 1.00001
1872.5 1.00001
1873 1.00001
1873.5 1.00001
1874 1.00001
1874.5 1.00001
1875 1.00001
1875.5 1.00001
1876 1.00001
1876.5 1.00001
1877 1.00001
1877.5 1.00001
1878 1.00001
1878.5 1.00001
1879 1.00001
1879.5 1.00001
1880 1.00001
1880.5 1.00001
1881 1.00001
1881.5 1.00001
1882 1.00001
1882.5 1.00001
1883 1.00001
1883.5 1.00001
1884 1.00001
1884.5 1.00001
1885 1.00001
1885.5 1.00001
1886 1.00001
1886.5 1.00001
1887 1.00001
1887.5 1.00001
1888 1.00001
1888.5 1.00001
1889 1.00001
1889.5 1.00001
1890 1.00001
1890.5 1.00001
1891 1.00001
1891.5 1.00001
1892 1.00001
1892.5 1.00001
1893 1.00001
1893.5 1.00001
1894 1.00001
1894.5 1.00001
1895 1.00001
1895.5 1.00001
1896 1.00001
1896.5 1.00001
1897 1.00001
1897.5 1.00001
1898 1.00001
1898.5 1.00001
1899 1.00001
1899.5 1.00001
1900 1.00001
1900.5 1.00001
1901 1.00001
1901.5 1.00001
1902 1.00001
1902.5 1.00001
1903 1.00001
1903.5 1.00001
1904 1.00001
1904.5 1.00001
1905 1.00001
1905.5 1.00001
1906 1.00001
1906.5 1.00001
1907 1.00001
1907.5 1.00001
1908 1.00001
1908.5 1.00001
1909 1.00001
1909.5 1.00001
1910 1.00001
1910.5 1.00001
1911 1.00001
1911.5 1.00001
1912 1.00001
1912.5 1.00001
1913 1.00001
1913.5 1.00001
1914 1.00001
1914.5 1.00001
1915 1.00001
1915.5 1.00001
1916 1.00001
1916.5 1.00001
1917 1.00001
1917.5 1.00001
1918 1.00001
1918.5 1.00001
1919 1.00001
1919.5 1.00001
1920 1.00001
1920.5 1.00001
1921 1.00001
1921.5 1.00001
1922 1.00001
1922.5 1.00001
1923 1.00001
1923.5 1.00001
1924 1.00001
1924.5 1.00001
1925 1.00001
1925.5 1.00001
1926 1.00001
1926.5 1.00001
1927 1.00001
1927.5 1.00001
1928 1.00001
1928.5 1.00001
1929 1.00001
1929.5 1.00001
1930 1.00001
1930.5 1.00001
1931 1.00001
1931.5 1.00001
1932 1.00001
1932.5 1.00001
1933 1.00001
1933.5 1.00001
1934 1
1934.5 1
1935 1
1935.5 1
1936 1
1936.5 1
1937 1
1937.5 1
1938 1
1938.5 1
1939 1
1939.5 1
1940 1
1940.5 1
1941 1
1941.5 1
1942 1
1942.5 1
1943 1
1943.5 1
1944 1
1944.5 1
1945 1
1945.5 1
1946 1
1946.5 1
1947 1
1947.5 1
1948 1
1948.5 1
1949 1
1949.5 1
1950 1
1950.5 1
1951 1
1951.5 1
1952 1
1952.5 1
1953 1
1953.5 1
1954 1
1954.5 1
1955 1
1955.5 1
1956 1
1956.5 1
1957 1
1957.5 1
1958 1
1958.5 1
1959 1
1959.5 1
1960 1
1960.5 1
1961 1
1961.5 1
1962 1
1962.5 1
1963 1
1963.5 1
1964 1
1964.5 1
1965 1
1965.5 1
1966 1
1966.5 1
1967 1
1967.5 1
1968 1
1968.5 1
1969 1
1969.5 1
1970 1
1970.5 1
1971 1
1971.5 1
1972 1
1972.5 1
1973 1
1973.5 1
1974 1
1974.5 1
1975 1
1975.5 1
1976 1
1976.5 1
1977 1
1977.5 1
1978 1
1978.5 1
1979 1
1979.5 1
1980 1
1980.5 1
1981 1
1981.5 1
1982 1
1982.5 1
1983 1
1983.5 1
1984 1
1984.5 1
1985 1
1985.5 1
1986 1
1986.5 1
1987 1
1987.5 1
1988 1
1988.5 1
1989 1
1989.5 1
1990 1
1990.5 1
1991 1
1991.5 1
1992 1
1992.5 1
1993 1
1993.5 1
1994 1
1994.5 1
1995 1
1995.5 1
1996 1
1996.5 1
1997 1
1997.5 1
1998 1
1998.5 1
1999 1
1999.5 1
