### FSI tabel with Julich A Potential (2-Gauss potential) #####
# Weight # krel [MeV] 
0.5 2.65595
1 3.2885
1.5 4.3653
2 3.91296
2.5 3.42492
3 3.33317
3.5 3.44708
4 3.57716
4.5 3.63933
5 3.63559
5.5 3.59931
6 3.55946
6.5 3.53103
7 3.51756
7.5 3.51625
8 3.52195
8.5 3.52976
9 3.53618
9.5 3.53945
10 3.53923
10.5 3.53608
11 3.53096
11.5 3.52485
12 3.51854
12.5 3.51255
13 3.50713
13.5 3.50233
14 3.49806
14.5 3.49416
15 3.49042
15.5 3.48669
16 3.48282
16.5 3.47872
17 3.47434
17.5 3.46967
18 3.4647
18.5 3.45948
19 3.45403
19.5 3.4484
20 3.44262
20.5 3.43671
21 3.43072
21.5 3.42464
22 3.41848
22.5 3.41226
23 3.40596
23.5 3.39959
24 3.39313
24.5 3.38659
25 3.37996
25.5 3.37323
26 3.36641
26.5 3.35948
27 3.35245
27.5 3.34532
28 3.3381
28.5 3.33078
29 3.32337
29.5 3.31586
30 3.30828
30.5 3.3006
31 3.29285
31.5 3.28503
32 3.27713
32.5 3.26915
33 3.26111
33.5 3.25301
34 3.24483
34.5 3.2366
35 3.2283
35.5 3.21995
36 3.21154
36.5 3.20307
37 3.19455
37.5 3.18597
38 3.17734
38.5 3.16867
39 3.15994
39.5 3.15117
40 3.14236
40.5 3.1335
41 3.1246
41.5 3.11566
42 3.10668
42.5 3.09767
43 3.08863
43.5 3.07955
44 3.07044
44.5 3.0613
45 3.05214
45.5 3.04295
46 3.03373
46.5 3.0245
47 3.01524
47.5 3.00596
48 2.99667
48.5 2.98736
49 2.97803
49.5 2.96869
50 2.95934
50.5 2.94998
51 2.94061
51.5 2.93123
52 2.92185
52.5 2.91246
53 2.90307
53.5 2.89367
54 2.88427
54.5 2.87487
55 2.86548
55.5 2.85608
56 2.84669
56.5 2.8373
57 2.82792
57.5 2.81855
58 2.80918
58.5 2.79982
59 2.79048
59.5 2.78114
60 2.77181
60.5 2.7625
61 2.7532
61.5 2.74392
62 2.73465
62.5 2.7254
63 2.71616
63.5 2.70694
64 2.69775
64.5 2.68857
65 2.67941
65.5 2.67027
66 2.66116
66.5 2.65207
67 2.643
67.5 2.63396
68 2.62494
68.5 2.61594
69 2.60697
69.5 2.59803
70 2.58912
70.5 2.58023
71 2.57137
71.5 2.56254
72 2.55374
72.5 2.54497
73 2.53623
73.5 2.52752
74 2.51885
74.5 2.5102
75 2.50159
75.5 2.493
76 2.48446
76.5 2.47594
77 2.46746
77.5 2.45901
78 2.4506
78.5 2.44222
79 2.43387
79.5 2.42557
80 2.41729
80.5 2.40905
81 2.40085
81.5 2.39269
82 2.38456
82.5 2.37647
83 2.36841
83.5 2.36039
84 2.35241
84.5 2.34447
85 2.33657
85.5 2.3287
86 2.32087
86.5 2.31308
87 2.30532
87.5 2.29761
88 2.28993
88.5 2.28229
89 2.27469
89.5 2.26713
90 2.25961
90.5 2.25213
91 2.24468
91.5 2.23728
92 2.22991
92.5 2.22258
93 2.21529
93.5 2.20804
94 2.20083
94.5 2.19366
95 2.18653
95.5 2.17943
96 2.17238
96.5 2.16536
97 2.15838
97.5 2.15144
98 2.14455
98.5 2.13768
99 2.13086
99.5 2.12408
100 2.11733
100.5 2.11063
101 2.10396
101.5 2.09733
102 2.09074
102.5 2.08419
103 2.07767
103.5 2.0712
104 2.06476
104.5 2.05836
105 2.052
105.5 2.04567
106 2.03938
106.5 2.03313
107 2.02692
107.5 2.02074
108 2.01461
108.5 2.0085
109 2.00244
109.5 1.99641
110 1.99042
110.5 1.98446
111 1.97855
111.5 1.97266
112 1.96682
112.5 1.96101
113 1.95523
113.5 1.94949
114 1.94379
114.5 1.93812
115 1.93248
115.5 1.92689
116 1.92132
116.5 1.91579
117 1.9103
117.5 1.90484
118 1.89941
118.5 1.89402
119 1.88866
119.5 1.88334
120 1.87804
120.5 1.87279
121 1.86756
121.5 1.86237
122 1.85721
122.5 1.85208
123 1.84699
123.5 1.84193
124 1.8369
124.5 1.8319
125 1.82694
125.5 1.822
126 1.8171
126.5 1.81223
127 1.80739
127.5 1.80258
128 1.7978
128.5 1.79305
129 1.78834
129.5 1.78365
130 1.77899
130.5 1.77436
131 1.76977
131.5 1.7652
132 1.76066
132.5 1.75615
133 1.75167
133.5 1.74722
134 1.7428
134.5 1.7384
135 1.73404
135.5 1.7297
136 1.72539
136.5 1.72111
137 1.71685
137.5 1.71263
138 1.70843
138.5 1.70425
139 1.70011
139.5 1.69599
140 1.6919
140.5 1.68783
141 1.68379
141.5 1.67978
142 1.67579
142.5 1.67183
143 1.6679
143.5 1.66399
144 1.6601
144.5 1.65624
145 1.65241
145.5 1.6486
146 1.64481
146.5 1.64105
147 1.63731
147.5 1.6336
148 1.62991
148.5 1.62625
149 1.62261
149.5 1.61899
150 1.6154
150.5 1.61182
151 1.60828
151.5 1.60475
152 1.60125
152.5 1.59777
153 1.59431
153.5 1.59088
154 1.58747
154.5 1.58408
155 1.58071
155.5 1.57736
156 1.57404
156.5 1.57073
157 1.56745
157.5 1.56419
158 1.56095
158.5 1.55773
159 1.55453
159.5 1.55135
160 1.54819
160.5 1.54506
161 1.54194
161.5 1.53884
162 1.53577
162.5 1.53271
163 1.52967
163.5 1.52665
164 1.52365
164.5 1.52067
165 1.51771
165.5 1.51477
166 1.51184
166.5 1.50894
167 1.50605
167.5 1.50319
168 1.50034
168.5 1.49751
169 1.49469
169.5 1.4919
170 1.48912
170.5 1.48636
171 1.48362
171.5 1.48089
172 1.47819
172.5 1.4755
173 1.47282
173.5 1.47017
174 1.46753
174.5 1.4649
175 1.4623
175.5 1.45971
176 1.45714
176.5 1.45458
177 1.45204
177.5 1.44951
178 1.447
178.5 1.44451
179 1.44203
179.5 1.43957
180 1.43713
180.5 1.4347
181 1.43228
181.5 1.42988
182 1.42749
182.5 1.42512
183 1.42277
183.5 1.42043
184 1.4181
184.5 1.41579
185 1.41349
185.5 1.41121
186 1.40894
186.5 1.40669
187 1.40445
187.5 1.40222
188 1.40001
188.5 1.39781
189 1.39562
189.5 1.39345
190 1.39129
190.5 1.38915
191 1.38702
191.5 1.3849
192 1.38279
192.5 1.3807
193 1.37862
193.5 1.37656
194 1.3745
194.5 1.37246
195 1.37043
195.5 1.36842
196 1.36641
196.5 1.36442
197 1.36244
197.5 1.36048
198 1.35852
198.5 1.35658
199 1.35465
199.5 1.35273
200 1.35082
200.5 1.34893
201 1.34704
201.5 1.34517
202 1.34331
202.5 1.34146
203 1.33962
203.5 1.33779
204 1.33598
204.5 1.33417
205 1.33238
205.5 1.3306
206 1.32882
206.5 1.32706
207 1.32531
207.5 1.32357
208 1.32184
208.5 1.32012
209 1.31841
209.5 1.31671
210 1.31502
210.5 1.31334
211 1.31168
211.5 1.31002
212 1.30837
212.5 1.30673
213 1.3051
213.5 1.30348
214 1.30187
214.5 1.30027
215 1.29868
215.5 1.2971
216 1.29553
216.5 1.29397
217 1.29242
217.5 1.29088
218 1.28934
218.5 1.28782
219 1.2863
219.5 1.28479
220 1.2833
220.5 1.28181
221 1.28033
221.5 1.27886
222 1.27739
222.5 1.27594
223 1.27449
223.5 1.27306
224 1.27163
224.5 1.27021
225 1.2688
225.5 1.26739
226 1.266
226.5 1.26461
227 1.26323
227.5 1.26186
228 1.2605
228.5 1.25915
229 1.2578
229.5 1.25646
230 1.25513
230.5 1.25381
231 1.25249
231.5 1.25118
232 1.24988
232.5 1.24859
233 1.24731
233.5 1.24603
234 1.24476
234.5 1.24349
235 1.24224
235.5 1.24099
236 1.23975
236.5 1.23852
237 1.23729
237.5 1.23607
238 1.23486
238.5 1.23365
239 1.23245
239.5 1.23126
240 1.23008
240.5 1.2289
241 1.22773
241.5 1.22656
242 1.22541
242.5 1.22426
243 1.22311
243.5 1.22197
244 1.22084
244.5 1.21972
245 1.2186
245.5 1.21749
246 1.21638
246.5 1.21528
247 1.21419
247.5 1.2131
248 1.21202
248.5 1.21095
249 1.20988
249.5 1.20882
250 1.20776
250.5 1.20671
251 1.20566
251.5 1.20463
252 1.20359
252.5 1.20257
253 1.20155
253.5 1.20053
254 1.19952
254.5 1.19852
255 1.19752
255.5 1.19653
256 1.19554
256.5 1.19456
257 1.19358
257.5 1.19261
258 1.19165
258.5 1.19069
259 1.18973
259.5 1.18879
260 1.18784
260.5 1.1869
261 1.18597
261.5 1.18504
262 1.18412
262.5 1.1832
263 1.18229
263.5 1.18139
264 1.18048
264.5 1.17959
265 1.17869
265.5 1.17781
266 1.17693
266.5 1.17605
267 1.17518
267.5 1.17431
268 1.17345
268.5 1.17259
269 1.17174
269.5 1.17089
270 1.17004
270.5 1.1692
271 1.16837
271.5 1.16754
272 1.16671
272.5 1.16589
273 1.16508
273.5 1.16427
274 1.16346
274.5 1.16266
275 1.16186
275.5 1.16106
276 1.16028
276.5 1.15949
277 1.15871
277.5 1.15793
278 1.15716
278.5 1.15639
279 1.15563
279.5 1.15487
280 1.15411
280.5 1.15336
281 1.15261
281.5 1.15187
282 1.15113
282.5 1.1504
283 1.14966
283.5 1.14894
284 1.14821
284.5 1.14749
285 1.14678
285.5 1.14607
286 1.14536
286.5 1.14466
287 1.14396
287.5 1.14326
288 1.14257
288.5 1.14188
289 1.14119
289.5 1.14051
290 1.13983
290.5 1.13916
291 1.13849
291.5 1.13782
292 1.13716
292.5 1.1365
293 1.13584
293.5 1.13519
294 1.13454
294.5 1.1339
295 1.13326
295.5 1.13262
296 1.13198
296.5 1.13135
297 1.13072
297.5 1.1301
298 1.12948
298.5 1.12886
299 1.12824
299.5 1.12763
300 1.12702
300.5 1.12642
301 1.12581
301.5 1.12522
302 1.12462
302.5 1.12403
303 1.12344
303.5 1.12285
304 1.12227
304.5 1.12169
305 1.12111
305.5 1.12054
306 1.11997
306.5 1.1194
307 1.11884
307.5 1.11827
308 1.11772
308.5 1.11716
309 1.11661
309.5 1.11606
310 1.11551
310.5 1.11497
311 1.11442
311.5 1.11389
312 1.11335
312.5 1.11282
313 1.11229
313.5 1.11176
314 1.11124
314.5 1.11071
315 1.1102
315.5 1.10968
316 1.10917
316.5 1.10866
317 1.10815
317.5 1.10764
318 1.10714
318.5 1.10664
319 1.10614
319.5 1.10565
320 1.10515
320.5 1.10466
321 1.10418
321.5 1.10369
322 1.10321
322.5 1.10273
323 1.10225
323.5 1.10178
324 1.10131
324.5 1.10084
325 1.10037
325.5 1.09991
326 1.09944
326.5 1.09898
327 1.09853
327.5 1.09807
328 1.09762
328.5 1.09717
329 1.09672
329.5 1.09627
330 1.09583
330.5 1.09539
331 1.09495
331.5 1.09451
332 1.09408
332.5 1.09365
333 1.09322
333.5 1.09279
334 1.09236
334.5 1.09194
335 1.09152
335.5 1.0911
336 1.09068
336.5 1.09027
337 1.08986
337.5 1.08945
338 1.08904
338.5 1.08863
339 1.08823
339.5 1.08783
340 1.08743
340.5 1.08703
341 1.08663
341.5 1.08624
342 1.08585
342.5 1.08546
343 1.08507
343.5 1.08468
344 1.0843
344.5 1.08392
345 1.08354
345.5 1.08316
346 1.08278
346.5 1.08241
347 1.08204
347.5 1.08167
348 1.0813
348.5 1.08093
349 1.08057
349.5 1.0802
350 1.07984
350.5 1.07948
351 1.07913
351.5 1.07877
352 1.07842
352.5 1.07806
353 1.07771
353.5 1.07737
354 1.07702
354.5 1.07667
355 1.07633
355.5 1.07599
356 1.07565
356.5 1.07531
357 1.07498
357.5 1.07464
358 1.07431
358.5 1.07398
359 1.07365
359.5 1.07332
360 1.07299
360.5 1.07267
361 1.07235
361.5 1.07203
362 1.07171
362.5 1.07139
363 1.07107
363.5 1.07076
364 1.07044
364.5 1.07013
365 1.06982
365.5 1.06951
366 1.06921
366.5 1.0689
367 1.0686
367.5 1.06829
368 1.06799
368.5 1.06769
369 1.0674
369.5 1.0671
370 1.0668
370.5 1.06651
371 1.06622
371.5 1.06593
372 1.06564
372.5 1.06535
373 1.06507
373.5 1.06478
374 1.0645
374.5 1.06422
375 1.06394
375.5 1.06366
376 1.06338
376.5 1.0631
377 1.06283
377.5 1.06255
378 1.06228
378.5 1.06201
379 1.06174
379.5 1.06147
380 1.06121
380.5 1.06094
381 1.06068
381.5 1.06041
382 1.06015
382.5 1.05989
383 1.05963
383.5 1.05937
384 1.05912
384.5 1.05886
385 1.05861
385.5 1.05835
386 1.0581
386.5 1.05785
387 1.0576
387.5 1.05736
388 1.05711
388.5 1.05686
389 1.05662
389.5 1.05638
390 1.05613
390.5 1.05589
391 1.05565
391.5 1.05542
392 1.05518
392.5 1.05494
393 1.05471
393.5 1.05448
394 1.05424
394.5 1.05401
395 1.05378
395.5 1.05355
396 1.05332
396.5 1.0531
397 1.05287
397.5 1.05265
398 1.05242
398.5 1.0522
399 1.05198
399.5 1.05176
400 1.05154
400.5 1.05132
401 1.05111
401.5 1.05089
402 1.05067
402.5 1.05046
403 1.05025
403.5 1.05004
404 1.04982
404.5 1.04962
405 1.04941
405.5 1.0492
406 1.04899
406.5 1.04879
407 1.04858
407.5 1.04838
408 1.04817
408.5 1.04797
409 1.04777
409.5 1.04757
410 1.04737
410.5 1.04718
411 1.04698
411.5 1.04678
412 1.04659
412.5 1.04639
413 1.0462
413.5 1.04601
414 1.04582
414.5 1.04563
415 1.04544
415.5 1.04525
416 1.04506
416.5 1.04487
417 1.04469
417.5 1.0445
418 1.04432
418.5 1.04414
419 1.04395
419.5 1.04377
420 1.04359
420.5 1.04341
421 1.04323
421.5 1.04305
422 1.04288
422.5 1.0427
423 1.04253
423.5 1.04235
424 1.04218
424.5 1.042
425 1.04183
425.5 1.04166
426 1.04149
426.5 1.04132
427 1.04115
427.5 1.04098
428 1.04082
428.5 1.04065
429 1.04048
429.5 1.04032
430 1.04016
430.5 1.03999
431 1.03983
431.5 1.03967
432 1.03951
432.5 1.03935
433 1.03919
433.5 1.03903
434 1.03887
434.5 1.03871
435 1.03856
435.5 1.0384
436 1.03825
436.5 1.03809
437 1.03794
437.5 1.03779
438 1.03763
438.5 1.03748
439 1.03733
439.5 1.03718
440 1.03703
440.5 1.03688
441 1.03674
441.5 1.03659
442 1.03644
442.5 1.0363
443 1.03615
443.5 1.03601
444 1.03586
444.5 1.03572
445 1.03558
445.5 1.03544
446 1.03529
446.5 1.03515
447 1.03501
447.5 1.03488
448 1.03474
448.5 1.0346
449 1.03446
449.5 1.03433
450 1.03419
450.5 1.03405
451 1.03392
451.5 1.03379
452 1.03365
452.5 1.03352
453 1.03339
453.5 1.03326
454 1.03312
454.5 1.03299
455 1.03286
455.5 1.03274
456 1.03261
456.5 1.03248
457 1.03235
457.5 1.03223
458 1.0321
458.5 1.03197
459 1.03185
459.5 1.03172
460 1.0316
460.5 1.03148
461 1.03135
461.5 1.03123
462 1.03111
462.5 1.03099
463 1.03087
463.5 1.03075
464 1.03063
464.5 1.03051
465 1.03039
465.5 1.03028
466 1.03016
466.5 1.03004
467 1.02993
467.5 1.02981
468 1.0297
468.5 1.02958
469 1.02947
469.5 1.02935
470 1.02924
470.5 1.02913
471 1.02902
471.5 1.02891
472 1.02879
472.5 1.02868
473 1.02857
473.5 1.02846
474 1.02836
474.5 1.02825
475 1.02814
475.5 1.02803
476 1.02793
476.5 1.02782
477 1.02771
477.5 1.02761
478 1.0275
478.5 1.0274
479 1.02729
479.5 1.02719
480 1.02709
480.5 1.02699
481 1.02688
481.5 1.02678
482 1.02668
482.5 1.02658
483 1.02648
483.5 1.02638
484 1.02628
484.5 1.02618
485 1.02608
485.5 1.02598
486 1.02589
486.5 1.02579
487 1.02569
487.5 1.0256
488 1.0255
488.5 1.02541
489 1.02531
489.5 1.02522
490 1.02512
490.5 1.02503
491 1.02493
491.5 1.02484
492 1.02475
492.5 1.02466
493 1.02457
493.5 1.02447
494 1.02438
494.5 1.02429
495 1.0242
495.5 1.02411
496 1.02402
496.5 1.02394
497 1.02385
497.5 1.02376
498 1.02367
498.5 1.02358
499 1.0235
499.5 1.02341
500 1.02332
500.5 1.02324
501 1.02315
501.5 1.02307
502 1.02298
502.5 1.0229
503 1.02282
503.5 1.02273
504 1.02265
504.5 1.02257
505 1.02248
505.5 1.0224
506 1.02232
506.5 1.02224
507 1.02216
507.5 1.02208
508 1.022
508.5 1.02192
509 1.02184
509.5 1.02176
510 1.02168
510.5 1.0216
511 1.02152
511.5 1.02145
512 1.02137
512.5 1.02129
513 1.02121
513.5 1.02114
514 1.02106
514.5 1.02099
515 1.02091
515.5 1.02084
516 1.02076
516.5 1.02069
517 1.02061
517.5 1.02054
518 1.02047
518.5 1.02039
519 1.02032
519.5 1.02025
520 1.02017
520.5 1.0201
521 1.02003
521.5 1.01996
522 1.01989
522.5 1.01982
523 1.01975
523.5 1.01968
524 1.01961
524.5 1.01954
525 1.01947
525.5 1.0194
526 1.01933
526.5 1.01926
527 1.0192
527.5 1.01913
528 1.01906
528.5 1.01899
529 1.01893
529.5 1.01886
530 1.01879
530.5 1.01873
531 1.01866
531.5 1.0186
532 1.01853
532.5 1.01847
533 1.0184
533.5 1.01834
534 1.01827
534.5 1.01821
535 1.01815
535.5 1.01808
536 1.01802
536.5 1.01796
537 1.0179
537.5 1.01783
538 1.01777
538.5 1.01771
539 1.01765
539.5 1.01759
540 1.01753
540.5 1.01747
541 1.01741
541.5 1.01735
542 1.01729
542.5 1.01723
543 1.01717
543.5 1.01711
544 1.01705
544.5 1.01699
545 1.01693
545.5 1.01688
546 1.01682
546.5 1.01676
547 1.0167
547.5 1.01665
548 1.01659
548.5 1.01653
549 1.01648
549.5 1.01642
550 1.01636
550.5 1.01631
551 1.01625
551.5 1.0162
552 1.01614
552.5 1.01609
553 1.01603
553.5 1.01598
554 1.01593
554.5 1.01587
555 1.01582
555.5 1.01576
556 1.01571
556.5 1.01566
557 1.01561
557.5 1.01555
558 1.0155
558.5 1.01545
559 1.0154
559.5 1.01535
560 1.01529
560.5 1.01524
561 1.01519
561.5 1.01514
562 1.01509
562.5 1.01504
563 1.01499
563.5 1.01494
564 1.01489
564.5 1.01484
565 1.01479
565.5 1.01474
566 1.01469
566.5 1.01464
567 1.0146
567.5 1.01455
568 1.0145
568.5 1.01445
569 1.0144
569.5 1.01436
570 1.01431
570.5 1.01426
571 1.01422
571.5 1.01417
572 1.01412
572.5 1.01408
573 1.01403
573.5 1.01398
574 1.01394
574.5 1.01389
575 1.01385
575.5 1.0138
576 1.01376
576.5 1.01371
577 1.01367
577.5 1.01362
578 1.01358
578.5 1.01353
579 1.01349
579.5 1.01345
580 1.0134
580.5 1.01336
581 1.01331
581.5 1.01327
582 1.01323
582.5 1.01319
583 1.01314
583.5 1.0131
584 1.01306
584.5 1.01302
585 1.01297
585.5 1.01293
586 1.01289
586.5 1.01285
587 1.01281
587.5 1.01277
588 1.01273
588.5 1.01269
589 1.01264
589.5 1.0126
590 1.01256
590.5 1.01252
591 1.01248
591.5 1.01244
592 1.0124
592.5 1.01237
593 1.01233
593.5 1.01229
594 1.01225
594.5 1.01221
595 1.01217
595.5 1.01213
596 1.01209
596.5 1.01205
597 1.01202
597.5 1.01198
598 1.01194
598.5 1.0119
599 1.01187
599.5 1.01183
600 1.01179
600.5 1.01175
601 1.01172
601.5 1.01168
602 1.01164
602.5 1.01161
603 1.01157
603.5 1.01153
604 1.0115
604.5 1.01146
605 1.01143
605.5 1.01139
606 1.01136
606.5 1.01132
607 1.01128
607.5 1.01125
608 1.01121
608.5 1.01118
609 1.01114
609.5 1.01111
610 1.01108
610.5 1.01104
611 1.01101
611.5 1.01097
612 1.01094
612.5 1.01091
613 1.01087
613.5 1.01084
614 1.01081
614.5 1.01077
615 1.01074
615.5 1.01071
616 1.01067
616.5 1.01064
617 1.01061
617.5 1.01057
618 1.01054
618.5 1.01051
619 1.01048
619.5 1.01045
620 1.01041
620.5 1.01038
621 1.01035
621.5 1.01032
622 1.01029
622.5 1.01026
623 1.01023
623.5 1.01019
624 1.01016
624.5 1.01013
625 1.0101
625.5 1.01007
626 1.01004
626.5 1.01001
627 1.00998
627.5 1.00995
628 1.00992
628.5 1.00989
629 1.00986
629.5 1.00983
630 1.0098
630.5 1.00977
631 1.00974
631.5 1.00971
632 1.00968
632.5 1.00965
633 1.00963
633.5 1.0096
634 1.00957
634.5 1.00954
635 1.00951
635.5 1.00948
636 1.00945
636.5 1.00943
637 1.0094
637.5 1.00937
638 1.00934
638.5 1.00932
639 1.00929
639.5 1.00926
640 1.00923
640.5 1.00921
641 1.00918
641.5 1.00915
642 1.00912
642.5 1.0091
643 1.00907
643.5 1.00904
644 1.00902
644.5 1.00899
645 1.00896
645.5 1.00894
646 1.00891
646.5 1.00888
647 1.00886
647.5 1.00883
648 1.00881
648.5 1.00878
649 1.00876
649.5 1.00873
650 1.0087
650.5 1.00868
651 1.00865
651.5 1.00863
652 1.0086
652.5 1.00858
653 1.00855
653.5 1.00853
654 1.0085
654.5 1.00848
655 1.00845
655.5 1.00843
656 1.00841
656.5 1.00838
657 1.00836
657.5 1.00833
658 1.00831
658.5 1.00829
659 1.00826
659.5 1.00824
660 1.00821
660.5 1.00819
661 1.00817
661.5 1.00814
662 1.00812
662.5 1.0081
663 1.00807
663.5 1.00805
664 1.00803
664.5 1.008
665 1.00798
665.5 1.00796
666 1.00794
666.5 1.00791
667 1.00789
667.5 1.00787
668 1.00785
668.5 1.00782
669 1.0078
669.5 1.00778
670 1.00776
670.5 1.00774
671 1.00771
671.5 1.00769
672 1.00767
672.5 1.00765
673 1.00763
673.5 1.00761
674 1.00758
674.5 1.00756
675 1.00754
675.5 1.00752
676 1.0075
676.5 1.00748
677 1.00746
677.5 1.00744
678 1.00741
678.5 1.00739
679 1.00737
679.5 1.00735
680 1.00733
680.5 1.00731
681 1.00729
681.5 1.00727
682 1.00725
682.5 1.00723
683 1.00721
683.5 1.00719
684 1.00717
684.5 1.00715
685 1.00713
685.5 1.00711
686 1.00709
686.5 1.00707
687 1.00705
687.5 1.00703
688 1.00701
688.5 1.00699
689 1.00697
689.5 1.00695
690 1.00694
690.5 1.00692
691 1.0069
691.5 1.00688
692 1.00686
692.5 1.00684
693 1.00682
693.5 1.0068
694 1.00678
694.5 1.00677
695 1.00675
695.5 1.00673
696 1.00671
696.5 1.00669
697 1.00667
697.5 1.00666
698 1.00664
698.5 1.00662
699 1.0066
699.5 1.00658
700 1.00657
700.5 1.00655
701 1.00653
701.5 1.00651
702 1.00649
702.5 1.00648
703 1.00646
703.5 1.00644
704 1.00642
704.5 1.00641
705 1.00639
705.5 1.00637
706 1.00636
706.5 1.00634
707 1.00632
707.5 1.0063
708 1.00629
708.5 1.00627
709 1.00625
709.5 1.00624
710 1.00622
710.5 1.0062
711 1.00619
711.5 1.00617
712 1.00615
712.5 1.00614
713 1.00612
713.5 1.0061
714 1.00609
714.5 1.00607
715 1.00606
715.5 1.00604
716 1.00602
716.5 1.00601
717 1.00599
717.5 1.00598
718 1.00596
718.5 1.00594
719 1.00593
719.5 1.00591
720 1.0059
720.5 1.00588
721 1.00587
721.5 1.00585
722 1.00583
722.5 1.00582
723 1.0058
723.5 1.00579
724 1.00577
724.5 1.00576
725 1.00574
725.5 1.00573
726 1.00571
726.5 1.0057
727 1.00568
727.5 1.00567
728 1.00565
728.5 1.00564
729 1.00562
729.5 1.00561
730 1.00559
730.5 1.00558
731 1.00557
731.5 1.00555
732 1.00554
732.5 1.00552
733 1.00551
733.5 1.00549
734 1.00548
734.5 1.00546
735 1.00545
735.5 1.00544
736 1.00542
736.5 1.00541
737 1.00539
737.5 1.00538
738 1.00537
738.5 1.00535
739 1.00534
739.5 1.00533
740 1.00531
740.5 1.0053
741 1.00528
741.5 1.00527
742 1.00526
742.5 1.00524
743 1.00523
743.5 1.00522
744 1.0052
744.5 1.00519
745 1.00518
745.5 1.00516
746 1.00515
746.5 1.00514
747 1.00512
747.5 1.00511
748 1.0051
748.5 1.00508
749 1.00507
749.5 1.00506
750 1.00505
750.5 1.00503
751 1.00502
751.5 1.00501
752 1.00499
752.5 1.00498
753 1.00497
753.5 1.00496
754 1.00494
754.5 1.00493
755 1.00492
755.5 1.00491
756 1.00489
756.5 1.00488
757 1.00487
757.5 1.00486
758 1.00485
758.5 1.00483
759 1.00482
759.5 1.00481
760 1.0048
760.5 1.00478
761 1.00477
761.5 1.00476
762 1.00475
762.5 1.00474
763 1.00473
763.5 1.00471
764 1.0047
764.5 1.00469
765 1.00468
765.5 1.00467
766 1.00465
766.5 1.00464
767 1.00463
767.5 1.00462
768 1.00461
768.5 1.0046
769 1.00459
769.5 1.00457
770 1.00456
770.5 1.00455
771 1.00454
771.5 1.00453
772 1.00452
772.5 1.00451
773 1.0045
773.5 1.00448
774 1.00447
774.5 1.00446
775 1.00445
775.5 1.00444
776 1.00443
776.5 1.00442
777 1.00441
777.5 1.0044
778 1.00439
778.5 1.00438
779 1.00436
779.5 1.00435
780 1.00434
780.5 1.00433
781 1.00432
781.5 1.00431
782 1.0043
782.5 1.00429
783 1.00428
783.5 1.00427
784 1.00426
784.5 1.00425
785 1.00424
785.5 1.00423
786 1.00422
786.5 1.00421
787 1.0042
787.5 1.00419
788 1.00418
788.5 1.00417
789 1.00416
789.5 1.00415
790 1.00414
790.5 1.00413
791 1.00412
791.5 1.00411
792 1.0041
792.5 1.00409
793 1.00408
793.5 1.00407
794 1.00406
794.5 1.00405
795 1.00404
795.5 1.00403
796 1.00402
796.5 1.00401
797 1.004
797.5 1.00399
798 1.00398
798.5 1.00397
799 1.00396
799.5 1.00395
800 1.00394
800.5 1.00393
801 1.00392
801.5 1.00391
802 1.0039
802.5 1.00389
803 1.00389
803.5 1.00388
804 1.00387
804.5 1.00386
805 1.00385
805.5 1.00384
806 1.00383
806.5 1.00382
807 1.00381
807.5 1.0038
808 1.00379
808.5 1.00378
809 1.00378
809.5 1.00377
810 1.00376
810.5 1.00375
811 1.00374
811.5 1.00373
812 1.00372
812.5 1.00371
813 1.00371
813.5 1.0037
814 1.00369
814.5 1.00368
815 1.00367
815.5 1.00366
816 1.00365
816.5 1.00364
817 1.00364
817.5 1.00363
818 1.00362
818.5 1.00361
819 1.0036
819.5 1.00359
820 1.00359
820.5 1.00358
821 1.00357
821.5 1.00356
822 1.00355
822.5 1.00354
823 1.00354
823.5 1.00353
824 1.00352
824.5 1.00351
825 1.0035
825.5 1.00349
826 1.00349
826.5 1.00348
827 1.00347
827.5 1.00346
828 1.00345
828.5 1.00345
829 1.00344
829.5 1.00343
830 1.00342
830.5 1.00341
831 1.00341
831.5 1.0034
832 1.00339
832.5 1.00338
833 1.00338
833.5 1.00337
834 1.00336
834.5 1.00335
835 1.00334
835.5 1.00334
836 1.00333
836.5 1.00332
837 1.00331
837.5 1.00331
838 1.0033
838.5 1.00329
839 1.00328
839.5 1.00328
840 1.00327
840.5 1.00326
841 1.00325
841.5 1.00325
842 1.00324
842.5 1.00323
843 1.00322
843.5 1.00322
844 1.00321
844.5 1.0032
845 1.00319
845.5 1.00319
846 1.00318
846.5 1.00317
847 1.00317
847.5 1.00316
848 1.00315
848.5 1.00314
849 1.00314
849.5 1.00313
850 1.00312
850.5 1.00312
851 1.00311
851.5 1.0031
852 1.00309
852.5 1.00309
853 1.00308
853.5 1.00307
854 1.00307
854.5 1.00306
855 1.00305
855.5 1.00305
856 1.00304
856.5 1.00303
857 1.00303
857.5 1.00302
858 1.00301
858.5 1.00301
859 1.003
859.5 1.00299
860 1.00299
860.5 1.00298
861 1.00297
861.5 1.00297
862 1.00296
862.5 1.00295
863 1.00295
863.5 1.00294
864 1.00293
864.5 1.00293
865 1.00292
865.5 1.00291
866 1.00291
866.5 1.0029
867 1.00289
867.5 1.00289
868 1.00288
868.5 1.00287
869 1.00287
869.5 1.00286
870 1.00286
870.5 1.00285
871 1.00284
871.5 1.00284
872 1.00283
872.5 1.00282
873 1.00282
873.5 1.00281
874 1.00281
874.5 1.0028
875 1.00279
875.5 1.00279
876 1.00278
876.5 1.00277
877 1.00277
877.5 1.00276
878 1.00276
878.5 1.00275
879 1.00274
879.5 1.00274
880 1.00273
880.5 1.00273
881 1.00272
881.5 1.00271
882 1.00271
882.5 1.0027
883 1.0027
883.5 1.00269
884 1.00268
884.5 1.00268
885 1.00267
885.5 1.00267
886 1.00266
886.5 1.00266
887 1.00265
887.5 1.00264
888 1.00264
888.5 1.00263
889 1.00263
889.5 1.00262
890 1.00262
890.5 1.00261
891 1.0026
891.5 1.0026
892 1.00259
892.5 1.00259
893 1.00258
893.5 1.00258
894 1.00257
894.5 1.00257
895 1.00256
895.5 1.00255
896 1.00255
896.5 1.00254
897 1.00254
897.5 1.00253
898 1.00253
898.5 1.00252
899 1.00252
899.5 1.00251
900 1.00251
900.5 1.0025
901 1.00249
901.5 1.00249
902 1.00248
902.5 1.00248
903 1.00247
903.5 1.00247
904 1.00246
904.5 1.00246
905 1.00245
905.5 1.00245
906 1.00244
906.5 1.00244
907 1.00243
907.5 1.00243
908 1.00242
908.5 1.00242
909 1.00241
909.5 1.00241
910 1.0024
910.5 1.0024
911 1.00239
911.5 1.00239
912 1.00238
912.5 1.00238
913 1.00237
913.5 1.00237
914 1.00236
914.5 1.00236
915 1.00235
915.5 1.00235
916 1.00234
916.5 1.00234
917 1.00233
917.5 1.00233
918 1.00232
918.5 1.00232
919 1.00231
919.5 1.00231
920 1.0023
920.5 1.0023
921 1.00229
921.5 1.00229
922 1.00228
922.5 1.00228
923 1.00227
923.5 1.00227
924 1.00226
924.5 1.00226
925 1.00225
925.5 1.00225
926 1.00224
926.5 1.00224
927 1.00224
927.5 1.00223
928 1.00223
928.5 1.00222
929 1.00222
929.5 1.00221
930 1.00221
930.5 1.0022
931 1.0022
931.5 1.00219
932 1.00219
932.5 1.00218
933 1.00218
933.5 1.00218
934 1.00217
934.5 1.00217
935 1.00216
935.5 1.00216
936 1.00215
936.5 1.00215
937 1.00214
937.5 1.00214
938 1.00214
938.5 1.00213
939 1.00213
939.5 1.00212
940 1.00212
940.5 1.00211
941 1.00211
941.5 1.0021
942 1.0021
942.5 1.0021
943 1.00209
943.5 1.00209
944 1.00208
944.5 1.00208
945 1.00207
945.5 1.00207
946 1.00207
946.5 1.00206
947 1.00206
947.5 1.00205
948 1.00205
948.5 1.00205
949 1.00204
949.5 1.00204
950 1.00203
950.5 1.00203
951 1.00202
951.5 1.00202
952 1.00202
952.5 1.00201
953 1.00201
953.5 1.002
954 1.002
954.5 1.002
955 1.00199
955.5 1.00199
956 1.00198
956.5 1.00198
957 1.00198
957.5 1.00197
958 1.00197
958.5 1.00196
959 1.00196
959.5 1.00196
960 1.00195
960.5 1.00195
961 1.00194
961.5 1.00194
962 1.00194
962.5 1.00193
963 1.00193
963.5 1.00192
964 1.00192
964.5 1.00192
965 1.00191
965.5 1.00191
966 1.00191
966.5 1.0019
967 1.0019
967.5 1.00189
968 1.00189
968.5 1.00189
969 1.00188
969.5 1.00188
970 1.00188
970.5 1.00187
971 1.00187
971.5 1.00186
972 1.00186
972.5 1.00186
973 1.00185
973.5 1.00185
974 1.00185
974.5 1.00184
975 1.00184
975.5 1.00183
976 1.00183
976.5 1.00183
977 1.00182
977.5 1.00182
978 1.00182
978.5 1.00181
979 1.00181
979.5 1.00181
980 1.0018
980.5 1.0018
981 1.00179
981.5 1.00179
982 1.00179
982.5 1.00178
983 1.00178
983.5 1.00178
984 1.00177
984.5 1.00177
985 1.00177
985.5 1.00176
986 1.00176
986.5 1.00176
987 1.00175
987.5 1.00175
988 1.00175
988.5 1.00174
989 1.00174
989.5 1.00174
990 1.00173
990.5 1.00173
991 1.00173
991.5 1.00172
992 1.00172
992.5 1.00172
993 1.00171
993.5 1.00171
994 1.00171
994.5 1.0017
995 1.0017
995.5 1.0017
996 1.00169
996.5 1.00169
997 1.00169
997.5 1.00168
998 1.00168
998.5 1.00168
999 1.00167
999.5 1.00167
1000 1.00167
1000.5 1.00166
1001 1.00166
1001.5 1.00166
1002 1.00165
1002.5 1.00165
1003 1.00165
1003.5 1.00164
1004 1.00164
1004.5 1.00164
1005 1.00163
1005.5 1.00163
1006 1.00163
1006.5 1.00162
1007 1.00162
1007.5 1.00162
1008 1.00162
1008.5 1.00161
1009 1.00161
1009.5 1.00161
1010 1.0016
1010.5 1.0016
1011 1.0016
1011.5 1.00159
1012 1.00159
1012.5 1.00159
1013 1.00158
1013.5 1.00158
1014 1.00158
1014.5 1.00158
1015 1.00157
1015.5 1.00157
1016 1.00157
1016.5 1.00156
1017 1.00156
1017.5 1.00156
1018 1.00155
1018.5 1.00155
1019 1.00155
1019.5 1.00155
1020 1.00154
1020.5 1.00154
1021 1.00154
1021.5 1.00153
1022 1.00153
1022.5 1.00153
1023 1.00153
1023.5 1.00152
1024 1.00152
1024.5 1.00152
1025 1.00151
1025.5 1.00151
1026 1.00151
1026.5 1.00151
1027 1.0015
1027.5 1.0015
1028 1.0015
1028.5 1.00149
1029 1.00149
1029.5 1.00149
1030 1.00149
1030.5 1.00148
1031 1.00148
1031.5 1.00148
1032 1.00147
1032.5 1.00147
1033 1.00147
1033.5 1.00147
1034 1.00146
1034.5 1.00146
1035 1.00146
1035.5 1.00145
1036 1.00145
1036.5 1.00145
1037 1.00145
1037.5 1.00144
1038 1.00144
1038.5 1.00144
1039 1.00144
1039.5 1.00143
1040 1.00143
1040.5 1.00143
1041 1.00143
1041.5 1.00142
1042 1.00142
1042.5 1.00142
1043 1.00141
1043.5 1.00141
1044 1.00141
1044.5 1.00141
1045 1.0014
1045.5 1.0014
1046 1.0014
1046.5 1.0014
1047 1.00139
1047.5 1.00139
1048 1.00139
1048.5 1.00139
1049 1.00138
1049.5 1.00138
1050 1.00138
1050.5 1.00138
1051 1.00137
1051.5 1.00137
1052 1.00137
1052.5 1.00137
1053 1.00136
1053.5 1.00136
1054 1.00136
1054.5 1.00136
1055 1.00135
1055.5 1.00135
1056 1.00135
1056.5 1.00135
1057 1.00134
1057.5 1.00134
1058 1.00134
1058.5 1.00134
1059 1.00133
1059.5 1.00133
1060 1.00133
1060.5 1.00133
1061 1.00132
1061.5 1.00132
1062 1.00132
1062.5 1.00132
1063 1.00131
1063.5 1.00131
1064 1.00131
1064.5 1.00131
1065 1.0013
1065.5 1.0013
1066 1.0013
1066.5 1.0013
1067 1.00129
1067.5 1.00129
1068 1.00129
1068.5 1.00129
1069 1.00129
1069.5 1.00128
1070 1.00128
1070.5 1.00128
1071 1.00128
1071.5 1.00127
1072 1.00127
1072.5 1.00127
1073 1.00127
1073.5 1.00126
1074 1.00126
1074.5 1.00126
1075 1.00126
1075.5 1.00126
1076 1.00125
1076.5 1.00125
1077 1.00125
1077.5 1.00125
1078 1.00124
1078.5 1.00124
1079 1.00124
1079.5 1.00124
1080 1.00123
1080.5 1.00123
1081 1.00123
1081.5 1.00123
1082 1.00123
1082.5 1.00122
1083 1.00122
1083.5 1.00122
1084 1.00122
1084.5 1.00122
1085 1.00121
1085.5 1.00121
1086 1.00121
1086.5 1.00121
1087 1.0012
1087.5 1.0012
1088 1.0012
1088.5 1.0012
1089 1.0012
1089.5 1.00119
1090 1.00119
1090.5 1.00119
1091 1.00119
1091.5 1.00118
1092 1.00118
1092.5 1.00118
1093 1.00118
1093.5 1.00118
1094 1.00117
1094.5 1.00117
1095 1.00117
1095.5 1.00117
1096 1.00117
1096.5 1.00116
1097 1.00116
1097.5 1.00116
1098 1.00116
1098.5 1.00116
1099 1.00115
1099.5 1.00115
1100 1.00115
1100.5 1.00115
1101 1.00115
1101.5 1.00114
1102 1.00114
1102.5 1.00114
1103 1.00114
1103.5 1.00114
1104 1.00113
1104.5 1.00113
1105 1.00113
1105.5 1.00113
1106 1.00113
1106.5 1.00112
1107 1.00112
1107.5 1.00112
1108 1.00112
1108.5 1.00112
1109 1.00111
1109.5 1.00111
1110 1.00111
1110.5 1.00111
1111 1.00111
1111.5 1.0011
1112 1.0011
1112.5 1.0011
1113 1.0011
1113.5 1.0011
1114 1.00109
1114.5 1.00109
1115 1.00109
1115.5 1.00109
1116 1.00109
1116.5 1.00108
1117 1.00108
1117.5 1.00108
1118 1.00108
1118.5 1.00108
1119 1.00108
1119.5 1.00107
1120 1.00107
1120.5 1.00107
1121 1.00107
1121.5 1.00107
1122 1.00106
1122.5 1.00106
1123 1.00106
1123.5 1.00106
1124 1.00106
1124.5 1.00105
1125 1.00105
1125.5 1.00105
1126 1.00105
1126.5 1.00105
1127 1.00105
1127.5 1.00104
1128 1.00104
1128.5 1.00104
1129 1.00104
1129.5 1.00104
1130 1.00103
1130.5 1.00103
1131 1.00103
1131.5 1.00103
1132 1.00103
1132.5 1.00103
1133 1.00102
1133.5 1.00102
1134 1.00102
1134.5 1.00102
1135 1.00102
1135.5 1.00102
1136 1.00101
1136.5 1.00101
1137 1.00101
1137.5 1.00101
1138 1.00101
1138.5 1.00101
1139 1.001
1139.5 1.001
1140 1.001
1140.5 1.001
1141 1.001
1141.5 1.00099
1142 1.00099
1142.5 1.00099
1143 1.00099
1143.5 1.00099
1144 1.00099
1144.5 1.00098
1145 1.00098
1145.5 1.00098
1146 1.00098
1146.5 1.00098
1147 1.00098
1147.5 1.00097
1148 1.00097
1148.5 1.00097
1149 1.00097
1149.5 1.00097
1150 1.00097
1150.5 1.00096
1151 1.00096
1151.5 1.00096
1152 1.00096
1152.5 1.00096
1153 1.00096
1153.5 1.00095
1154 1.00095
1154.5 1.00095
1155 1.00095
1155.5 1.00095
1156 1.00095
1156.5 1.00095
1157 1.00094
1157.5 1.00094
1158 1.00094
1158.5 1.00094
1159 1.00094
1159.5 1.00094
1160 1.00093
1160.5 1.00093
1161 1.00093
1161.5 1.00093
1162 1.00093
1162.5 1.00093
1163 1.00092
1163.5 1.00092
1164 1.00092
1164.5 1.00092
1165 1.00092
1165.5 1.00092
1166 1.00092
1166.5 1.00091
1167 1.00091
1167.5 1.00091
1168 1.00091
1168.5 1.00091
1169 1.00091
1169.5 1.0009
1170 1.0009
1170.5 1.0009
1171 1.0009
1171.5 1.0009
1172 1.0009
1172.5 1.0009
1173 1.00089
1173.5 1.00089
1174 1.00089
1174.5 1.00089
1175 1.00089
1175.5 1.00089
1176 1.00089
1176.5 1.00088
1177 1.00088
1177.5 1.00088
1178 1.00088
1178.5 1.00088
1179 1.00088
1179.5 1.00088
1180 1.00087
1180.5 1.00087
1181 1.00087
1181.5 1.00087
1182 1.00087
1182.5 1.00087
1183 1.00087
1183.5 1.00086
1184 1.00086
1184.5 1.00086
1185 1.00086
1185.5 1.00086
1186 1.00086
1186.5 1.00086
1187 1.00085
1187.5 1.00085
1188 1.00085
1188.5 1.00085
1189 1.00085
1189.5 1.00085
1190 1.00085
1190.5 1.00084
1191 1.00084
1191.5 1.00084
1192 1.00084
1192.5 1.00084
1193 1.00084
1193.5 1.00084
1194 1.00083
1194.5 1.00083
1195 1.00083
1195.5 1.00083
1196 1.00083
1196.5 1.00083
1197 1.00083
1197.5 1.00082
1198 1.00082
1198.5 1.00082
1199 1.00082
1199.5 1.00082
1200 1.00082
1200.5 1.00082
1201 1.00082
1201.5 1.00081
1202 1.00081
1202.5 1.00081
1203 1.00081
1203.5 1.00081
1204 1.00081
1204.5 1.00081
1205 1.0008
1205.5 1.0008
1206 1.0008
1206.5 1.0008
1207 1.0008
1207.5 1.0008
1208 1.0008
1208.5 1.0008
1209 1.00079
1209.5 1.00079
1210 1.00079
1210.5 1.00079
1211 1.00079
1211.5 1.00079
1212 1.00079
1212.5 1.00079
1213 1.00078
1213.5 1.00078
1214 1.00078
1214.5 1.00078
1215 1.00078
1215.5 1.00078
1216 1.00078
1216.5 1.00078
1217 1.00077
1217.5 1.00077
1218 1.00077
1218.5 1.00077
1219 1.00077
1219.5 1.00077
1220 1.00077
1220.5 1.00077
1221 1.00076
1221.5 1.00076
1222 1.00076
1222.5 1.00076
1223 1.00076
1223.5 1.00076
1224 1.00076
1224.5 1.00076
1225 1.00075
1225.5 1.00075
1226 1.00075
1226.5 1.00075
1227 1.00075
1227.5 1.00075
1228 1.00075
1228.5 1.00075
1229 1.00074
1229.5 1.00074
1230 1.00074
1230.5 1.00074
1231 1.00074
1231.5 1.00074
1232 1.00074
1232.5 1.00074
1233 1.00074
1233.5 1.00073
1234 1.00073
1234.5 1.00073
1235 1.00073
1235.5 1.00073
1236 1.00073
1236.5 1.00073
1237 1.00073
1237.5 1.00073
1238 1.00072
1238.5 1.00072
1239 1.00072
1239.5 1.00072
1240 1.00072
1240.5 1.00072
1241 1.00072
1241.5 1.00072
1242 1.00071
1242.5 1.00071
1243 1.00071
1243.5 1.00071
1244 1.00071
1244.5 1.00071
1245 1.00071
1245.5 1.00071
1246 1.00071
1246.5 1.0007
1247 1.0007
1247.5 1.0007
1248 1.0007
1248.5 1.0007
1249 1.0007
1249.5 1.0007
1250 1.0007
1250.5 1.0007
1251 1.00069
1251.5 1.00069
1252 1.00069
1252.5 1.00069
1253 1.00069
1253.5 1.00069
1254 1.00069
1254.5 1.00069
1255 1.00069
1255.5 1.00069
1256 1.00068
1256.5 1.00068
1257 1.00068
1257.5 1.00068
1258 1.00068
1258.5 1.00068
1259 1.00068
1259.5 1.00068
1260 1.00068
1260.5 1.00067
1261 1.00067
1261.5 1.00067
1262 1.00067
1262.5 1.00067
1263 1.00067
1263.5 1.00067
1264 1.00067
1264.5 1.00067
1265 1.00067
1265.5 1.00066
1266 1.00066
1266.5 1.00066
1267 1.00066
1267.5 1.00066
1268 1.00066
1268.5 1.00066
1269 1.00066
1269.5 1.00066
1270 1.00065
1270.5 1.00065
1271 1.00065
1271.5 1.00065
1272 1.00065
1272.5 1.00065
1273 1.00065
1273.5 1.00065
1274 1.00065
1274.5 1.00065
1275 1.00064
1275.5 1.00064
1276 1.00064
1276.5 1.00064
1277 1.00064
1277.5 1.00064
1278 1.00064
1278.5 1.00064
1279 1.00064
1279.5 1.00064
1280 1.00064
1280.5 1.00063
1281 1.00063
1281.5 1.00063
1282 1.00063
1282.5 1.00063
1283 1.00063
1283.5 1.00063
1284 1.00063
1284.5 1.00063
1285 1.00063
1285.5 1.00062
1286 1.00062
1286.5 1.00062
1287 1.00062
1287.5 1.00062
1288 1.00062
1288.5 1.00062
1289 1.00062
1289.5 1.00062
1290 1.00062
1290.5 1.00061
1291 1.00061
1291.5 1.00061
1292 1.00061
1292.5 1.00061
1293 1.00061
1293.5 1.00061
1294 1.00061
1294.5 1.00061
1295 1.00061
1295.5 1.00061
1296 1.0006
1296.5 1.0006
1297 1.0006
1297.5 1.0006
1298 1.0006
1298.5 1.0006
1299 1.0006
1299.5 1.0006
1300 1.0006
1300.5 1.0006
1301 1.0006
1301.5 1.00059
1302 1.00059
1302.5 1.00059
1303 1.00059
1303.5 1.00059
1304 1.00059
1304.5 1.00059
1305 1.00059
1305.5 1.00059
1306 1.00059
1306.5 1.00059
1307 1.00059
1307.5 1.00058
1308 1.00058
1308.5 1.00058
1309 1.00058
1309.5 1.00058
1310 1.00058
1310.5 1.00058
1311 1.00058
1311.5 1.00058
1312 1.00058
1312.5 1.00058
1313 1.00057
1313.5 1.00057
1314 1.00057
1314.5 1.00057
1315 1.00057
1315.5 1.00057
1316 1.00057
1316.5 1.00057
1317 1.00057
1317.5 1.00057
1318 1.00057
1318.5 1.00057
1319 1.00056
1319.5 1.00056
1320 1.00056
1320.5 1.00056
1321 1.00056
1321.5 1.00056
1322 1.00056
1322.5 1.00056
1323 1.00056
1323.5 1.00056
1324 1.00056
1324.5 1.00056
1325 1.00055
1325.5 1.00055
1326 1.00055
1326.5 1.00055
1327 1.00055
1327.5 1.00055
1328 1.00055
1328.5 1.00055
1329 1.00055
1329.5 1.00055
1330 1.00055
1330.5 1.00055
1331 1.00054
1331.5 1.00054
1332 1.00054
1332.5 1.00054
1333 1.00054
1333.5 1.00054
1334 1.00054
1334.5 1.00054
1335 1.00054
1335.5 1.00054
1336 1.00054
1336.5 1.00054
1337 1.00054
1337.5 1.00053
1338 1.00053
1338.5 1.00053
1339 1.00053
1339.5 1.00053
1340 1.00053
1340.5 1.00053
1341 1.00053
1341.5 1.00053
1342 1.00053
1342.5 1.00053
1343 1.00053
1343.5 1.00052
1344 1.00052
1344.5 1.00052
1345 1.00052
1345.5 1.00052
1346 1.00052
1346.5 1.00052
1347 1.00052
1347.5 1.00052
1348 1.00052
1348.5 1.00052
1349 1.00052
1349.5 1.00052
1350 1.00052
1350.5 1.00051
1351 1.00051
1351.5 1.00051
1352 1.00051
1352.5 1.00051
1353 1.00051
1353.5 1.00051
1354 1.00051
1354.5 1.00051
1355 1.00051
1355.5 1.00051
1356 1.00051
1356.5 1.00051
1357 1.0005
1357.5 1.0005
1358 1.0005
1358.5 1.0005
1359 1.0005
1359.5 1.0005
1360 1.0005
1360.5 1.0005
1361 1.0005
1361.5 1.0005
1362 1.0005
1362.5 1.0005
1363 1.0005
1363.5 1.0005
1364 1.00049
1364.5 1.00049
1365 1.00049
1365.5 1.00049
1366 1.00049
1366.5 1.00049
1367 1.00049
1367.5 1.00049
1368 1.00049
1368.5 1.00049
1369 1.00049
1369.5 1.00049
1370 1.00049
1370.5 1.00049
1371 1.00048
1371.5 1.00048
1372 1.00048
1372.5 1.00048
1373 1.00048
1373.5 1.00048
1374 1.00048
1374.5 1.00048
1375 1.00048
1375.5 1.00048
1376 1.00048
1376.5 1.00048
1377 1.00048
1377.5 1.00048
1378 1.00048
1378.5 1.00047
1379 1.00047
1379.5 1.00047
1380 1.00047
1380.5 1.00047
1381 1.00047
1381.5 1.00047
1382 1.00047
1382.5 1.00047
1383 1.00047
1383.5 1.00047
1384 1.00047
1384.5 1.00047
1385 1.00047
1385.5 1.00047
1386 1.00046
1386.5 1.00046
1387 1.00046
1387.5 1.00046
1388 1.00046
1388.5 1.00046
1389 1.00046
1389.5 1.00046
1390 1.00046
1390.5 1.00046
1391 1.00046
1391.5 1.00046
1392 1.00046
1392.5 1.00046
1393 1.00046
1393.5 1.00045
1394 1.00045
1394.5 1.00045
1395 1.00045
1395.5 1.00045
1396 1.00045
1396.5 1.00045
1397 1.00045
1397.5 1.00045
1398 1.00045
1398.5 1.00045
1399 1.00045
1399.5 1.00045
1400 1.00045
1400.5 1.00045
1401 1.00045
1401.5 1.00044
1402 1.00044
1402.5 1.00044
1403 1.00044
1403.5 1.00044
1404 1.00044
1404.5 1.00044
1405 1.00044
1405.5 1.00044
1406 1.00044
1406.5 1.00044
1407 1.00044
1407.5 1.00044
1408 1.00044
1408.5 1.00044
1409 1.00044
1409.5 1.00043
1410 1.00043
1410.5 1.00043
1411 1.00043
1411.5 1.00043
1412 1.00043
1412.5 1.00043
1413 1.00043
1413.5 1.00043
1414 1.00043
1414.5 1.00043
1415 1.00043
1415.5 1.00043
1416 1.00043
1416.5 1.00043
1417 1.00043
1417.5 1.00043
1418 1.00042
1418.5 1.00042
1419 1.00042
1419.5 1.00042
1420 1.00042
1420.5 1.00042
1421 1.00042
1421.5 1.00042
1422 1.00042
1422.5 1.00042
1423 1.00042
1423.5 1.00042
1424 1.00042
1424.5 1.00042
1425 1.00042
1425.5 1.00042
1426 1.00042
1426.5 1.00041
1427 1.00041
1427.5 1.00041
1428 1.00041
1428.5 1.00041
1429 1.00041
1429.5 1.00041
1430 1.00041
1430.5 1.00041
1431 1.00041
1431.5 1.00041
1432 1.00041
1432.5 1.00041
1433 1.00041
1433.5 1.00041
1434 1.00041
1434.5 1.00041
1435 1.0004
1435.5 1.0004
1436 1.0004
1436.5 1.0004
1437 1.0004
1437.5 1.0004
1438 1.0004
1438.5 1.0004
1439 1.0004
1439.5 1.0004
1440 1.0004
1440.5 1.0004
1441 1.0004
1441.5 1.0004
1442 1.0004
1442.5 1.0004
1443 1.0004
1443.5 1.0004
1444 1.0004
1444.5 1.00039
1445 1.00039
1445.5 1.00039
1446 1.00039
1446.5 1.00039
1447 1.00039
1447.5 1.00039
1448 1.00039
1448.5 1.00039
1449 1.00039
1449.5 1.00039
1450 1.00039
1450.5 1.00039
1451 1.00039
1451.5 1.00039
1452 1.00039
1452.5 1.00039
1453 1.00039
1453.5 1.00039
1454 1.00038
1454.5 1.00038
1455 1.00038
1455.5 1.00038
1456 1.00038
1456.5 1.00038
1457 1.00038
1457.5 1.00038
1458 1.00038
1458.5 1.00038
1459 1.00038
1459.5 1.00038
1460 1.00038
1460.5 1.00038
1461 1.00038
1461.5 1.00038
1462 1.00038
1462.5 1.00038
1463 1.00038
1463.5 1.00037
1464 1.00037
1464.5 1.00037
1465 1.00037
1465.5 1.00037
1466 1.00037
1466.5 1.00037
1467 1.00037
1467.5 1.00037
1468 1.00037
1468.5 1.00037
1469 1.00037
1469.5 1.00037
1470 1.00037
1470.5 1.00037
1471 1.00037
1471.5 1.00037
1472 1.00037
1472.5 1.00037
1473 1.00037
1473.5 1.00036
1474 1.00036
1474.5 1.00036
1475 1.00036
1475.5 1.00036
1476 1.00036
1476.5 1.00036
1477 1.00036
1477.5 1.00036
1478 1.00036
1478.5 1.00036
1479 1.00036
1479.5 1.00036
1480 1.00036
1480.5 1.00036
1481 1.00036
1481.5 1.00036
1482 1.00036
1482.5 1.00036
1483 1.00036
1483.5 1.00036
1484 1.00035
1484.5 1.00035
1485 1.00035
1485.5 1.00035
1486 1.00035
1486.5 1.00035
1487 1.00035
1487.5 1.00035
1488 1.00035
1488.5 1.00035
1489 1.00035
1489.5 1.00035
1490 1.00035
1490.5 1.00035
1491 1.00035
1491.5 1.00035
1492 1.00035
1492.5 1.00035
1493 1.00035
1493.5 1.00035
1494 1.00035
1494.5 1.00035
1495 1.00034
1495.5 1.00034
1496 1.00034
1496.5 1.00034
1497 1.00034
1497.5 1.00034
1498 1.00034
1498.5 1.00034
1499 1.00034
1499.5 1.00034
1500 1.00034
1500.5 1.00034
1501 1.00034
1501.5 1.00034
1502 1.00034
1502.5 1.00034
1503 1.00034
1503.5 1.00034
1504 1.00034
1504.5 1.00034
1505 1.00034
1505.5 1.00034
1506 1.00033
1506.5 1.00033
1507 1.00033
1507.5 1.00033
1508 1.00033
1508.5 1.00033
1509 1.00033
1509.5 1.00033
1510 1.00033
1510.5 1.00033
1511 1.00033
1511.5 1.00033
1512 1.00033
1512.5 1.00033
1513 1.00033
1513.5 1.00033
1514 1.00033
1514.5 1.00033
1515 1.00033
1515.5 1.00033
1516 1.00033
1516.5 1.00033
1517 1.00033
1517.5 1.00032
1518 1.00032
1518.5 1.00032
1519 1.00032
1519.5 1.00032
1520 1.00032
1520.5 1.00032
1521 1.00032
1521.5 1.00032
1522 1.00032
1522.5 1.00032
1523 1.00032
1523.5 1.00032
1524 1.00032
1524.5 1.00032
1525 1.00032
1525.5 1.00032
1526 1.00032
1526.5 1.00032
1527 1.00032
1527.5 1.00032
1528 1.00032
1528.5 1.00032
1529 1.00032
1529.5 1.00031
1530 1.00031
1530.5 1.00031
1531 1.00031
1531.5 1.00031
1532 1.00031
1532.5 1.00031
1533 1.00031
1533.5 1.00031
1534 1.00031
1534.5 1.00031
1535 1.00031
1535.5 1.00031
1536 1.00031
1536.5 1.00031
1537 1.00031
1537.5 1.00031
1538 1.00031
1538.5 1.00031
1539 1.00031
1539.5 1.00031
1540 1.00031
1540.5 1.00031
1541 1.00031
1541.5 1.00031
1542 1.0003
1542.5 1.0003
1543 1.0003
1543.5 1.0003
1544 1.0003
1544.5 1.0003
1545 1.0003
1545.5 1.0003
1546 1.0003
1546.5 1.0003
1547 1.0003
1547.5 1.0003
1548 1.0003
1548.5 1.0003
1549 1.0003
1549.5 1.0003
1550 1.0003
1550.5 1.0003
1551 1.0003
1551.5 1.0003
1552 1.0003
1552.5 1.0003
1553 1.0003
1553.5 1.0003
1554 1.0003
1554.5 1.0003
1555 1.00029
1555.5 1.00029
1556 1.00029
1556.5 1.00029
1557 1.00029
1557.5 1.00029
1558 1.00029
1558.5 1.00029
1559 1.00029
1559.5 1.00029
1560 1.00029
1560.5 1.00029
1561 1.00029
1561.5 1.00029
1562 1.00029
1562.5 1.00029
1563 1.00029
1563.5 1.00029
1564 1.00029
1564.5 1.00029
1565 1.00029
1565.5 1.00029
1566 1.00029
1566.5 1.00029
1567 1.00029
1567.5 1.00029
1568 1.00029
1568.5 1.00029
1569 1.00028
1569.5 1.00028
1570 1.00028
1570.5 1.00028
1571 1.00028
1571.5 1.00028
1572 1.00028
1572.5 1.00028
1573 1.00028
1573.5 1.00028
1574 1.00028
1574.5 1.00028
1575 1.00028
1575.5 1.00028
1576 1.00028
1576.5 1.00028
1577 1.00028
1577.5 1.00028
1578 1.00028
1578.5 1.00028
1579 1.00028
1579.5 1.00028
1580 1.00028
1580.5 1.00028
1581 1.00028
1581.5 1.00028
1582 1.00028
1582.5 1.00028
1583 1.00027
1583.5 1.00027
1584 1.00027
1584.5 1.00027
1585 1.00027
1585.5 1.00027
1586 1.00027
1586.5 1.00027
1587 1.00027
1587.5 1.00027
1588 1.00027
1588.5 1.00027
1589 1.00027
1589.5 1.00027
1590 1.00027
1590.5 1.00027
1591 1.00027
1591.5 1.00027
1592 1.00027
1592.5 1.00027
1593 1.00027
1593.5 1.00027
1594 1.00027
1594.5 1.00027
1595 1.00027
1595.5 1.00027
1596 1.00027
1596.5 1.00027
1597 1.00027
1597.5 1.00027
1598 1.00026
1598.5 1.00026
1599 1.00026
1599.5 1.00026
1600 1.00026
1600.5 1.00026
1601 1.00026
1601.5 1.00026
1602 1.00026
1602.5 1.00026
1603 1.00026
1603.5 1.00026
1604 1.00026
1604.5 1.00026
1605 1.00026
1605.5 1.00026
1606 1.00026
1606.5 1.00026
1607 1.00026
1607.5 1.00026
1608 1.00026
1608.5 1.00026
1609 1.00026
1609.5 1.00026
1610 1.00026
1610.5 1.00026
1611 1.00026
1611.5 1.00026
1612 1.00026
1612.5 1.00026
1613 1.00026
1613.5 1.00025
1614 1.00025
1614.5 1.00025
1615 1.00025
1615.5 1.00025
1616 1.00025
1616.5 1.00025
1617 1.00025
1617.5 1.00025
1618 1.00025
1618.5 1.00025
1619 1.00025
1619.5 1.00025
1620 1.00025
1620.5 1.00025
1621 1.00025
1621.5 1.00025
1622 1.00025
1622.5 1.00025
1623 1.00025
1623.5 1.00025
1624 1.00025
1624.5 1.00025
1625 1.00025
1625.5 1.00025
1626 1.00025
1626.5 1.00025
1627 1.00025
1627.5 1.00025
1628 1.00025
1628.5 1.00025
1629 1.00025
1629.5 1.00025
1630 1.00024
1630.5 1.00024
1631 1.00024
1631.5 1.00024
1632 1.00024
1632.5 1.00024
1633 1.00024
1633.5 1.00024
1634 1.00024
1634.5 1.00024
1635 1.00024
1635.5 1.00024
1636 1.00024
1636.5 1.00024
1637 1.00024
1637.5 1.00024
1638 1.00024
1638.5 1.00024
1639 1.00024
1639.5 1.00024
1640 1.00024
1640.5 1.00024
1641 1.00024
1641.5 1.00024
1642 1.00024
1642.5 1.00024
1643 1.00024
1643.5 1.00024
1644 1.00024
1644.5 1.00024
1645 1.00024
1645.5 1.00024
1646 1.00024
1646.5 1.00024
1647 1.00024
1647.5 1.00023
1648 1.00023
1648.5 1.00023
1649 1.00023
1649.5 1.00023
1650 1.00023
1650.5 1.00023
1651 1.00023
1651.5 1.00023
1652 1.00023
1652.5 1.00023
1653 1.00023
1653.5 1.00023
1654 1.00023
1654.5 1.00023
1655 1.00023
1655.5 1.00023
1656 1.00023
1656.5 1.00023
1657 1.00023
1657.5 1.00023
1658 1.00023
1658.5 1.00023
1659 1.00023
1659.5 1.00023
1660 1.00023
1660.5 1.00023
1661 1.00023
1661.5 1.00023
1662 1.00023
1662.5 1.00023
1663 1.00023
1663.5 1.00023
1664 1.00023
1664.5 1.00023
1665 1.00023
1665.5 1.00022
1666 1.00022
1666.5 1.00022
1667 1.00022
1667.5 1.00022
1668 1.00022
1668.5 1.00022
1669 1.00022
1669.5 1.00022
1670 1.00022
1670.5 1.00022
1671 1.00022
1671.5 1.00022
1672 1.00022
1672.5 1.00022
1673 1.00022
1673.5 1.00022
1674 1.00022
1674.5 1.00022
1675 1.00022
1675.5 1.00022
1676 1.00022
1676.5 1.00022
1677 1.00022
1677.5 1.00022
1678 1.00022
1678.5 1.00022
1679 1.00022
1679.5 1.00022
1680 1.00022
1680.5 1.00022
1681 1.00022
1681.5 1.00022
1682 1.00022
1682.5 1.00022
1683 1.00022
1683.5 1.00022
1684 1.00022
1684.5 1.00021
1685 1.00021
1685.5 1.00021
1686 1.00021
1686.5 1.00021
1687 1.00021
1687.5 1.00021
1688 1.00021
1688.5 1.00021
1689 1.00021
1689.5 1.00021
1690 1.00021
1690.5 1.00021
1691 1.00021
1691.5 1.00021
1692 1.00021
1692.5 1.00021
1693 1.00021
1693.5 1.00021
1694 1.00021
1694.5 1.00021
1695 1.00021
1695.5 1.00021
1696 1.00021
1696.5 1.00021
1697 1.00021
1697.5 1.00021
1698 1.00021
1698.5 1.00021
1699 1.00021
1699.5 1.00021
1700 1.00021
1700.5 1.00021
1701 1.00021
1701.5 1.00021
1702 1.00021
1702.5 1.00021
1703 1.00021
1703.5 1.00021
1704 1.00021
1704.5 1.00021
1705 1.0002
1705.5 1.0002
1706 1.0002
1706.5 1.0002
1707 1.0002
1707.5 1.0002
1708 1.0002
1708.5 1.0002
1709 1.0002
1709.5 1.0002
1710 1.0002
1710.5 1.0002
1711 1.0002
1711.5 1.0002
1712 1.0002
1712.5 1.0002
1713 1.0002
1713.5 1.0002
1714 1.0002
1714.5 1.0002
1715 1.0002
1715.5 1.0002
1716 1.0002
1716.5 1.0002
1717 1.0002
1717.5 1.0002
1718 1.0002
1718.5 1.0002
1719 1.0002
1719.5 1.0002
1720 1.0002
1720.5 1.0002
1721 1.0002
1721.5 1.0002
1722 1.0002
1722.5 1.0002
1723 1.0002
1723.5 1.0002
1724 1.0002
1724.5 1.0002
1725 1.0002
1725.5 1.0002
1726 1.0002
1726.5 1.0002
1727 1.00019
1727.5 1.00019
1728 1.00019
1728.5 1.00019
1729 1.00019
1729.5 1.00019
1730 1.00019
1730.5 1.00019
1731 1.00019
1731.5 1.00019
1732 1.00019
1732.5 1.00019
1733 1.00019
1733.5 1.00019
1734 1.00019
1734.5 1.00019
1735 1.00019
1735.5 1.00019
1736 1.00019
1736.5 1.00019
1737 1.00019
1737.5 1.00019
1738 1.00019
1738.5 1.00019
1739 1.00019
1739.5 1.00019
1740 1.00019
1740.5 1.00019
1741 1.00019
1741.5 1.00019
1742 1.00019
1742.5 1.00019
1743 1.00019
1743.5 1.00019
1744 1.00019
1744.5 1.00019
1745 1.00019
1745.5 1.00019
1746 1.00019
1746.5 1.00019
1747 1.00019
1747.5 1.00019
1748 1.00019
1748.5 1.00019
1749 1.00019
1749.5 1.00019
1750 1.00018
1750.5 1.00018
1751 1.00018
1751.5 1.00018
1752 1.00018
1752.5 1.00018
1753 1.00018
1753.5 1.00018
1754 1.00018
1754.5 1.00018
1755 1.00018
1755.5 1.00018
1756 1.00018
1756.5 1.00018
1757 1.00018
1757.5 1.00018
1758 1.00018
1758.5 1.00018
1759 1.00018
1759.5 1.00018
1760 1.00018
1760.5 1.00018
1761 1.00018
1761.5 1.00018
1762 1.00018
1762.5 1.00018
1763 1.00018
1763.5 1.00018
1764 1.00018
1764.5 1.00018
1765 1.00018
1765.5 1.00018
1766 1.00018
1766.5 1.00018
1767 1.00018
1767.5 1.00018
1768 1.00018
1768.5 1.00018
1769 1.00018
1769.5 1.00018
1770 1.00018
1770.5 1.00018
1771 1.00018
1771.5 1.00018
1772 1.00018
1772.5 1.00018
1773 1.00018
1773.5 1.00018
1774 1.00018
1774.5 1.00017
1775 1.00017
1775.5 1.00017
1776 1.00017
1776.5 1.00017
1777 1.00017
1777.5 1.00017
1778 1.00017
1778.5 1.00017
1779 1.00017
1779.5 1.00017
1780 1.00017
1780.5 1.00017
1781 1.00017
1781.5 1.00017
1782 1.00017
1782.5 1.00017
1783 1.00017
1783.5 1.00017
1784 1.00017
1784.5 1.00017
1785 1.00017
1785.5 1.00017
1786 1.00017
1786.5 1.00017
1787 1.00017
1787.5 1.00017
1788 1.00017
1788.5 1.00017
1789 1.00017
1789.5 1.00017
1790 1.00017
1790.5 1.00017
1791 1.00017
1791.5 1.00017
1792 1.00017
1792.5 1.00017
1793 1.00017
1793.5 1.00017
1794 1.00017
1794.5 1.00017
1795 1.00017
1795.5 1.00017
1796 1.00017
1796.5 1.00017
1797 1.00017
1797.5 1.00017
1798 1.00017
1798.5 1.00017
1799 1.00017
1799.5 1.00017
1800 1.00017
1800.5 1.00017
1801 1.00016
1801.5 1.00016
1802 1.00016
1802.5 1.00016
1803 1.00016
1803.5 1.00016
1804 1.00016
1804.5 1.00016
1805 1.00016
1805.5 1.00016
1806 1.00016
1806.5 1.00016
1807 1.00016
1807.5 1.00016
1808 1.00016
1808.5 1.00016
1809 1.00016
1809.5 1.00016
1810 1.00016
1810.5 1.00016
1811 1.00016
1811.5 1.00016
1812 1.00016
1812.5 1.00016
1813 1.00016
1813.5 1.00016
1814 1.00016
1814.5 1.00016
1815 1.00016
1815.5 1.00016
1816 1.00016
1816.5 1.00016
1817 1.00016
1817.5 1.00016
1818 1.00016
1818.5 1.00016
1819 1.00016
1819.5 1.00016
1820 1.00016
1820.5 1.00016
1821 1.00016
1821.5 1.00016
1822 1.00016
1822.5 1.00016
1823 1.00016
1823.5 1.00016
1824 1.00016
1824.5 1.00016
1825 1.00016
1825.5 1.00016
1826 1.00016
1826.5 1.00016
1827 1.00016
1827.5 1.00016
1828 1.00016
1828.5 1.00016
1829 1.00016
1829.5 1.00016
1830 1.00015
1830.5 1.00015
1831 1.00015
1831.5 1.00015
1832 1.00015
1832.5 1.00015
1833 1.00015
1833.5 1.00015
1834 1.00015
1834.5 1.00015
1835 1.00015
1835.5 1.00015
1836 1.00015
1836.5 1.00015
1837 1.00015
1837.5 1.00015
1838 1.00015
1838.5 1.00015
1839 1.00015
1839.5 1.00015
1840 1.00015
1840.5 1.00015
1841 1.00015
1841.5 1.00015
1842 1.00015
1842.5 1.00015
1843 1.00015
1843.5 1.00015
1844 1.00015
1844.5 1.00015
1845 1.00015
1845.5 1.00015
1846 1.00015
1846.5 1.00015
1847 1.00015
1847.5 1.00015
1848 1.00015
1848.5 1.00015
1849 1.00015
1849.5 1.00015
1850 1.00015
1850.5 1.00015
1851 1.00015
1851.5 1.00015
1852 1.00015
1852.5 1.00015
1853 1.00015
1853.5 1.00015
1854 1.00015
1854.5 1.00015
1855 1.00015
1855.5 1.00015
1856 1.00015
1856.5 1.00015
1857 1.00015
1857.5 1.00015
1858 1.00015
1858.5 1.00015
1859 1.00015
1859.5 1.00015
1860 1.00015
1860.5 1.00015
1861 1.00014
1861.5 1.00014
1862 1.00014
1862.5 1.00014
1863 1.00014
1863.5 1.00014
1864 1.00014
1864.5 1.00014
1865 1.00014
1865.5 1.00014
1866 1.00014
1866.5 1.00014
1867 1.00014
1867.5 1.00014
1868 1.00014
1868.5 1.00014
1869 1.00014
1869.5 1.00014
1870 1.00014
1870.5 1.00014
1871 1.00014
1871.5 1.00014
1872 1.00014
1872.5 1.00014
1873 1.00014
1873.5 1.00014
1874 1.00014
1874.5 1.00014
1875 1.00014
1875.5 1.00014
1876 1.00014
1876.5 1.00014
1877 1.00014
1877.5 1.00014
1878 1.00014
1878.5 1.00014
1879 1.00014
1879.5 1.00014
1880 1.00014
1880.5 1.00014
1881 1.00014
1881.5 1.00014
1882 1.00014
1882.5 1.00014
1883 1.00014
1883.5 1.00014
1884 1.00014
1884.5 1.00014
1885 1.00014
1885.5 1.00014
1886 1.00014
1886.5 1.00014
1887 1.00014
1887.5 1.00014
1888 1.00014
1888.5 1.00014
1889 1.00014
1889.5 1.00014
1890 1.00014
1890.5 1.00014
1891 1.00014
1891.5 1.00014
1892 1.00014
1892.5 1.00014
1893 1.00014
1893.5 1.00014
1894 1.00014
1894.5 1.00013
1895 1.00013
1895.5 1.00013
1896 1.00013
1896.5 1.00013
1897 1.00013
1897.5 1.00013
1898 1.00013
1898.5 1.00013
1899 1.00013
1899.5 1.00013
1900 1.00013
1900.5 1.00013
1901 1.00013
1901.5 1.00013
1902 1.00013
1902.5 1.00013
1903 1.00013
1903.5 1.00013
1904 1.00013
1904.5 1.00013
1905 1.00013
1905.5 1.00013
1906 1.00013
1906.5 1.00013
1907 1.00013
1907.5 1.00013
1908 1.00013
1908.5 1.00013
1909 1.00013
1909.5 1.00013
1910 1.00013
1910.5 1.00013
1911 1.00013
1911.5 1.00013
1912 1.00013
1912.5 1.00013
1913 1.00013
1913.5 1.00013
1914 1.00013
1914.5 1.00013
1915 1.00013
1915.5 1.00013
1916 1.00013
1916.5 1.00013
1917 1.00013
1917.5 1.00013
1918 1.00013
1918.5 1.00013
1919 1.00013
1919.5 1.00013
1920 1.00013
1920.5 1.00013
1921 1.00013
1921.5 1.00013
1922 1.00013
1922.5 1.00013
1923 1.00013
1923.5 1.00013
1924 1.00013
1924.5 1.00013
1925 1.00013
1925.5 1.00013
1926 1.00013
1926.5 1.00013
1927 1.00013
1927.5 1.00013
1928 1.00013
1928.5 1.00013
1929 1.00013
1929.5 1.00013
1930 1.00013
1930.5 1.00013
1931 1.00013
1931.5 1.00013
1932 1.00012
1932.5 1.00012
1933 1.00012
1933.5 1.00012
1934 1.00012
1934.5 1.00012
1935 1.00012
1935.5 1.00012
1936 1.00012
1936.5 1.00012
1937 1.00012
1937.5 1.00012
1938 1.00012
1938.5 1.00012
1939 1.00012
1939.5 1.00012
1940 1.00012
1940.5 1.00012
1941 1.00012
1941.5 1.00012
1942 1.00012
1942.5 1.00012
1943 1.00012
1943.5 1.00012
1944 1.00012
1944.5 1.00012
1945 1.00012
1945.5 1.00012
1946 1.00012
1946.5 1.00012
1947 1.00012
1947.5 1.00012
1948 1.00012
1948.5 1.00012
1949 1.00012
1949.5 1.00012
1950 1.00012
1950.5 1.00012
1951 1.00012
1951.5 1.00012
1952 1.00012
1952.5 1.00012
1953 1.00012
1953.5 1.00012
1954 1.00012
1954.5 1.00012
1955 1.00012
1955.5 1.00012
1956 1.00012
1956.5 1.00012
1957 1.00012
1957.5 1.00012
1958 1.00012
1958.5 1.00012
1959 1.00012
1959.5 1.00012
1960 1.00012
1960.5 1.00012
1961 1.00012
1961.5 1.00012
1962 1.00012
1962.5 1.00012
1963 1.00012
1963.5 1.00012
1964 1.00012
1964.5 1.00012
1965 1.00012
1965.5 1.00012
1966 1.00012
1966.5 1.00012
1967 1.00012
1967.5 1.00012
1968 1.00012
1968.5 1.00012
1969 1.00012
1969.5 1.00012
1970 1.00012
1970.5 1.00012
1971 1.00012
1971.5 1.00012
1972 1.00012
1972.5 1.00012
1973 1.00011
1973.5 1.00011
1974 1.00011
1974.5 1.00011
1975 1.00011
1975.5 1.00011
1976 1.00011
1976.5 1.00011
1977 1.00011
1977.5 1.00011
1978 1.00011
1978.5 1.00011
1979 1.00011
1979.5 1.00011
1980 1.00011
1980.5 1.00011
1981 1.00011
1981.5 1.00011
1982 1.00011
1982.5 1.00011
1983 1.00011
1983.5 1.00011
1984 1.00011
1984.5 1.00011
1985 1.00011
1985.5 1.00011
1986 1.00011
1986.5 1.00011
1987 1.00011
1987.5 1.00011
1988 1.00011
1988.5 1.00011
1989 1.00011
1989.5 1.00011
1990 1.00011
1990.5 1.00011
1991 1.00011
1991.5 1.00011
1992 1.00011
1992.5 1.00011
1993 1.00011
1993.5 1.00011
1994 1.00011
1994.5 1.00011
1995 1.00011
1995.5 1.00011
1996 1.00011
1996.5 1.00011
1997 1.00011
1997.5 1.00011
1998 1.00011
1998.5 1.00011
1999 1.00011
1999.5 1.00011
