### FSI tabel with Julich A Potential (2-Gauss potential) #####
# Weight # krel [MeV] 
0.5 3.87123
1 4.56853
1.5 5.66082
2 5.2129
2.5 4.71209
3 4.61533
3.5 4.73483
4 4.86971
4.5 4.93341
5 4.92917
5.5 4.89142
6 4.84984
6.5 4.81992
7 4.80544
7.5 4.80352
8 4.80883
8.5 4.81627
9 4.82223
9.5 4.82489
10 4.8239
10.5 4.81984
11 4.81371
11.5 4.80653
12 4.7991
12.5 4.79197
13 4.78539
13.5 4.77942
14 4.77396
14.5 4.76883
15 4.76385
15.5 4.75883
16 4.75365
16.5 4.74819
17 4.7424
17.5 4.73628
18 4.72983
18.5 4.72307
19 4.71606
19.5 4.70882
20 4.7014
20.5 4.69382
21 4.68612
21.5 4.6783
22 4.67037
22.5 4.66234
23 4.65421
23.5 4.64597
24 4.63762
24.5 4.62916
25 4.62057
25.5 4.61186
26 4.60302
26.5 4.59405
27 4.58495
27.5 4.57573
28 4.56638
28.5 4.55691
29 4.54732
29.5 4.53762
30 4.5278
30.5 4.51788
31 4.50786
31.5 4.49773
32 4.48751
32.5 4.4772
33 4.4668
33.5 4.45631
34 4.44573
34.5 4.43508
35 4.42434
35.5 4.41352
36 4.40263
36.5 4.39167
37 4.38063
37.5 4.36953
38 4.35835
38.5 4.34712
39 4.33581
39.5 4.32445
40 4.31303
40.5 4.30156
41 4.29002
41.5 4.27844
42 4.26681
42.5 4.25513
43 4.24341
43.5 4.23164
44 4.21983
44.5 4.20799
45 4.1961
45.5 4.18419
46 4.17224
46.5 4.16026
47 4.14825
47.5 4.13622
48 4.12416
48.5 4.11208
49 4.09998
49.5 4.08786
50 4.07573
50.5 4.06357
51 4.05141
51.5 4.03923
52 4.02705
52.5 4.01485
53 4.00265
53.5 3.99045
54 3.97824
54.5 3.96603
55 3.95382
55.5 3.94161
56 3.9294
56.5 3.9172
57 3.905
57.5 3.89281
58 3.88063
58.5 3.86846
59 3.8563
59.5 3.84415
60 3.83202
60.5 3.8199
61 3.80779
61.5 3.79571
62 3.78364
62.5 3.77159
63 3.75957
63.5 3.74756
64 3.73558
64.5 3.72362
65 3.71168
65.5 3.69977
66 3.68789
66.5 3.67604
67 3.66421
67.5 3.65242
68 3.64065
68.5 3.62892
69 3.61721
69.5 3.60554
70 3.5939
70.5 3.5823
71 3.57073
71.5 3.5592
72 3.5477
72.5 3.53624
73 3.52482
73.5 3.51344
74 3.50209
74.5 3.49078
75 3.47951
75.5 3.46829
76 3.4571
76.5 3.44596
77 3.43485
77.5 3.42379
78 3.41277
78.5 3.4018
79 3.39086
79.5 3.37998
80 3.36913
80.5 3.35833
81 3.34758
81.5 3.33687
82 3.3262
82.5 3.31558
83 3.30501
83.5 3.29448
84 3.284
84.5 3.27356
85 3.26318
85.5 3.25284
86 3.24254
86.5 3.2323
87 3.2221
87.5 3.21195
88 3.20184
88.5 3.19179
89 3.18178
89.5 3.17182
90 3.16191
90.5 3.15205
91 3.14224
91.5 3.13247
92 3.12276
92.5 3.11309
93 3.10347
93.5 3.0939
94 3.08437
94.5 3.0749
95 3.06548
95.5 3.0561
96 3.04677
96.5 3.03749
97 3.02826
97.5 3.01908
98 3.00994
98.5 3.00086
99 2.99182
99.5 2.98283
100 2.97389
100.5 2.965
101 2.95615
101.5 2.94736
102 2.93861
102.5 2.92991
103 2.92125
103.5 2.91265
104 2.90409
104.5 2.89558
105 2.88711
105.5 2.8787
106 2.87033
106.5 2.862
107 2.85372
107.5 2.84549
108 2.83731
108.5 2.82917
109 2.82108
109.5 2.81303
110 2.80503
110.5 2.79707
111 2.78916
111.5 2.7813
112 2.77348
112.5 2.7657
113 2.75797
113.5 2.75028
114 2.74264
114.5 2.73504
115 2.72749
115.5 2.71997
116 2.71251
116.5 2.70508
117 2.6977
117.5 2.69036
118 2.68306
118.5 2.67581
119 2.6686
119.5 2.66143
120 2.6543
120.5 2.64721
121 2.64017
121.5 2.63316
122 2.6262
122.5 2.61928
123 2.6124
123.5 2.60555
124 2.59875
124.5 2.59199
125 2.58527
125.5 2.57858
126 2.57194
126.5 2.56534
127 2.55877
127.5 2.55224
128 2.54575
128.5 2.5393
129 2.53289
129.5 2.52651
130 2.52017
130.5 2.51387
131 2.50761
131.5 2.50138
132 2.49519
132.5 2.48904
133 2.48292
133.5 2.47684
134 2.47079
134.5 2.46478
135 2.4588
135.5 2.45286
136 2.44696
136.5 2.44108
137 2.43525
137.5 2.42944
138 2.42368
138.5 2.41794
139 2.41224
139.5 2.40657
140 2.40093
140.5 2.39533
141 2.38976
141.5 2.38423
142 2.37872
142.5 2.37325
143 2.36781
143.5 2.3624
144 2.35702
144.5 2.35167
145 2.34636
145.5 2.34107
146 2.33582
146.5 2.33059
147 2.3254
147.5 2.32024
148 2.3151
148.5 2.31
149 2.30492
149.5 2.29988
150 2.29486
150.5 2.28987
151 2.28491
151.5 2.27998
152 2.27508
152.5 2.2702
153 2.26536
153.5 2.26054
154 2.25575
154.5 2.25098
155 2.24625
155.5 2.24154
156 2.23685
156.5 2.2322
157 2.22757
157.5 2.22296
158 2.21838
158.5 2.21383
159 2.2093
159.5 2.2048
160 2.20033
160.5 2.19588
161 2.19145
161.5 2.18705
162 2.18267
162.5 2.17832
163 2.17399
163.5 2.16969
164 2.16541
164.5 2.16116
165 2.15692
165.5 2.15272
166 2.14853
166.5 2.14437
167 2.14023
167.5 2.13611
168 2.13202
168.5 2.12795
169 2.1239
169.5 2.11987
170 2.11587
170.5 2.11188
171 2.10792
171.5 2.10398
172 2.10007
172.5 2.09617
173 2.09229
173.5 2.08844
174 2.0846
174.5 2.08079
175 2.077
175.5 2.07323
176 2.06947
176.5 2.06574
177 2.06203
177.5 2.05834
178 2.05467
178.5 2.05101
179 2.04738
179.5 2.04377
180 2.04017
180.5 2.03659
181 2.03304
181.5 2.0295
182 2.02598
182.5 2.02248
183 2.019
183.5 2.01553
184 2.01209
184.5 2.00866
185 2.00525
185.5 2.00185
186 1.99848
186.5 1.99512
187 1.99178
187.5 1.98846
188 1.98515
188.5 1.98186
189 1.97859
189.5 1.97534
190 1.9721
190.5 1.96887
191 1.96567
191.5 1.96248
192 1.95931
192.5 1.95615
193 1.95301
193.5 1.94988
194 1.94677
194.5 1.94368
195 1.9406
195.5 1.93754
196 1.93449
196.5 1.93146
197 1.92844
197.5 1.92544
198 1.92246
198.5 1.91948
199 1.91653
199.5 1.91358
200 1.91066
200.5 1.90774
201 1.90484
201.5 1.90196
202 1.89909
202.5 1.89623
203 1.89339
203.5 1.89056
204 1.88774
204.5 1.88494
205 1.88215
205.5 1.87938
206 1.87661
206.5 1.87387
207 1.87113
207.5 1.86841
208 1.8657
208.5 1.863
209 1.86032
209.5 1.85765
210 1.85499
210.5 1.85235
211 1.84972
211.5 1.8471
212 1.84449
212.5 1.84189
213 1.83931
213.5 1.83674
214 1.83418
214.5 1.83163
215 1.8291
215.5 1.82658
216 1.82406
216.5 1.82156
217 1.81907
217.5 1.8166
218 1.81413
218.5 1.81168
219 1.80924
219.5 1.8068
220 1.80438
220.5 1.80197
221 1.79957
221.5 1.79719
222 1.79481
222.5 1.79244
223 1.79009
223.5 1.78774
224 1.78541
224.5 1.78309
225 1.78077
225.5 1.77847
226 1.77618
226.5 1.77389
227 1.77162
227.5 1.76936
228 1.76711
228.5 1.76486
229 1.76263
229.5 1.76041
230 1.7582
230.5 1.75599
231 1.7538
231.5 1.75162
232 1.74944
232.5 1.74728
233 1.74512
233.5 1.74298
234 1.74084
234.5 1.73871
235 1.73659
235.5 1.73448
236 1.73238
236.5 1.73029
237 1.72821
237.5 1.72614
238 1.72407
238.5 1.72202
239 1.71997
239.5 1.71793
240 1.7159
240.5 1.71388
241 1.71187
241.5 1.70986
242 1.70787
242.5 1.70588
243 1.7039
243.5 1.70193
244 1.69997
244.5 1.69801
245 1.69606
245.5 1.69413
246 1.6922
246.5 1.69027
247 1.68836
247.5 1.68645
248 1.68455
248.5 1.68266
249 1.68078
249.5 1.6789
250 1.67704
250.5 1.67517
251 1.67332
251.5 1.67148
252 1.66964
252.5 1.66781
253 1.66598
253.5 1.66417
254 1.66236
254.5 1.66056
255 1.65877
255.5 1.65698
256 1.6552
256.5 1.65343
257 1.65166
257.5 1.6499
258 1.64815
258.5 1.6464
259 1.64467
259.5 1.64294
260 1.64121
260.5 1.63949
261 1.63778
261.5 1.63608
262 1.63438
262.5 1.63269
263 1.631
263.5 1.62933
264 1.62766
264.5 1.62599
265 1.62433
265.5 1.62268
266 1.62103
266.5 1.61939
267 1.61776
267.5 1.61613
268 1.61451
268.5 1.6129
269 1.61129
269.5 1.60969
270 1.60809
270.5 1.6065
271 1.60492
271.5 1.60334
272 1.60176
272.5 1.6002
273 1.59864
273.5 1.59708
274 1.59553
274.5 1.59399
275 1.59245
275.5 1.59092
276 1.58939
276.5 1.58787
277 1.58636
277.5 1.58485
278 1.58334
278.5 1.58185
279 1.58035
279.5 1.57887
280 1.57738
280.5 1.57591
281 1.57444
281.5 1.57297
282 1.57151
282.5 1.57006
283 1.56861
283.5 1.56716
284 1.56572
284.5 1.56429
285 1.56286
285.5 1.56143
286 1.56002
286.5 1.5586
287 1.55719
287.5 1.55579
288 1.55439
288.5 1.553
289 1.55161
289.5 1.55022
290 1.54884
290.5 1.54747
291 1.5461
291.5 1.54474
292 1.54338
292.5 1.54202
293 1.54067
293.5 1.53933
294 1.53799
294.5 1.53665
295 1.53532
295.5 1.53399
296 1.53267
296.5 1.53135
297 1.53004
297.5 1.52873
298 1.52743
298.5 1.52613
299 1.52483
299.5 1.52354
300 1.52226
300.5 1.52097
301 1.5197
301.5 1.51842
302 1.51716
302.5 1.51589
303 1.51463
303.5 1.51338
304 1.51212
304.5 1.51088
305 1.50963
305.5 1.5084
306 1.50716
306.5 1.50593
307 1.5047
307.5 1.50348
308 1.50226
308.5 1.50105
309 1.49984
309.5 1.49863
310 1.49743
310.5 1.49623
311 1.49504
311.5 1.49385
312 1.49266
312.5 1.49148
313 1.4903
313.5 1.48913
314 1.48796
314.5 1.48679
315 1.48563
315.5 1.48447
316 1.48332
316.5 1.48216
317 1.48102
317.5 1.47987
318 1.47873
318.5 1.4776
319 1.47646
319.5 1.47533
320 1.47421
320.5 1.47309
321 1.47197
321.5 1.47086
322 1.46974
322.5 1.46864
323 1.46753
323.5 1.46643
324 1.46534
324.5 1.46424
325 1.46315
325.5 1.46207
326 1.46099
326.5 1.45991
327 1.45883
327.5 1.45776
328 1.45669
328.5 1.45562
329 1.45456
329.5 1.4535
330 1.45245
330.5 1.4514
331 1.45035
331.5 1.4493
332 1.44826
332.5 1.44722
333 1.44619
333.5 1.44515
334 1.44412
334.5 1.4431
335 1.44208
335.5 1.44106
336 1.44004
336.5 1.43903
337 1.43802
337.5 1.43701
338 1.43601
338.5 1.43501
339 1.43401
339.5 1.43302
340 1.43202
340.5 1.43104
341 1.43005
341.5 1.42907
342 1.42809
342.5 1.42711
343 1.42614
343.5 1.42517
344 1.4242
344.5 1.42324
345 1.42228
345.5 1.42132
346 1.42037
346.5 1.41941
347 1.41846
347.5 1.41752
348 1.41657
348.5 1.41563
349 1.41469
349.5 1.41376
350 1.41283
350.5 1.4119
351 1.41097
351.5 1.41005
352 1.40913
352.5 1.40821
353 1.40729
353.5 1.40638
354 1.40547
354.5 1.40456
355 1.40366
355.5 1.40276
356 1.40186
356.5 1.40096
357 1.40007
357.5 1.39918
358 1.39829
358.5 1.3974
359 1.39652
359.5 1.39564
360 1.39476
360.5 1.39389
361 1.39301
361.5 1.39214
362 1.39128
362.5 1.39041
363 1.38955
363.5 1.38869
364 1.38783
364.5 1.38698
365 1.38613
365.5 1.38528
366 1.38443
366.5 1.38359
367 1.38274
367.5 1.3819
368 1.38107
368.5 1.38023
369 1.3794
369.5 1.37857
370 1.37774
370.5 1.37692
371 1.37609
371.5 1.37527
372 1.37446
372.5 1.37364
373 1.37283
373.5 1.37202
374 1.37121
374.5 1.3704
375 1.3696
375.5 1.3688
376 1.368
376.5 1.3672
377 1.36641
377.5 1.36562
378 1.36483
378.5 1.36404
379 1.36325
379.5 1.36247
380 1.36169
380.5 1.36091
381 1.36014
381.5 1.35936
382 1.35859
382.5 1.35782
383 1.35705
383.5 1.35629
384 1.35553
384.5 1.35477
385 1.35401
385.5 1.35325
386 1.3525
386.5 1.35175
387 1.351
387.5 1.35025
388 1.3495
388.5 1.34876
389 1.34802
389.5 1.34728
390 1.34654
390.5 1.34581
391 1.34507
391.5 1.34434
392 1.34361
392.5 1.34289
393 1.34216
393.5 1.34144
394 1.34072
394.5 1.34
395 1.33928
395.5 1.33857
396 1.33786
396.5 1.33715
397 1.33644
397.5 1.33573
398 1.33503
398.5 1.33432
399 1.33362
399.5 1.33293
400 1.33223
400.5 1.33153
401 1.33084
401.5 1.33015
402 1.32946
402.5 1.32878
403 1.32809
403.5 1.32741
404 1.32673
404.5 1.32605
405 1.32537
405.5 1.32469
406 1.32402
406.5 1.32335
407 1.32268
407.5 1.32201
408 1.32135
408.5 1.32068
409 1.32002
409.5 1.31936
410 1.3187
410.5 1.31804
411 1.31739
411.5 1.31673
412 1.31608
412.5 1.31543
413 1.31479
413.5 1.31414
414 1.3135
414.5 1.31285
415 1.31221
415.5 1.31157
416 1.31094
416.5 1.3103
417 1.30967
417.5 1.30904
418 1.30841
418.5 1.30778
419 1.30715
419.5 1.30653
420 1.3059
420.5 1.30528
421 1.30466
421.5 1.30404
422 1.30343
422.5 1.30281
423 1.3022
423.5 1.30159
424 1.30098
424.5 1.30037
425 1.29976
425.5 1.29916
426 1.29855
426.5 1.29795
427 1.29735
427.5 1.29676
428 1.29616
428.5 1.29556
429 1.29497
429.5 1.29438
430 1.29379
430.5 1.2932
431 1.29261
431.5 1.29203
432 1.29144
432.5 1.29086
433 1.29028
433.5 1.2897
434 1.28913
434.5 1.28855
435 1.28798
435.5 1.2874
436 1.28683
436.5 1.28626
437 1.28569
437.5 1.28513
438 1.28456
438.5 1.284
439 1.28344
439.5 1.28288
440 1.28232
440.5 1.28176
441 1.2812
441.5 1.28065
442 1.2801
442.5 1.27955
443 1.279
443.5 1.27845
444 1.2779
444.5 1.27736
445 1.27681
445.5 1.27627
446 1.27573
446.5 1.27519
447 1.27465
447.5 1.27411
448 1.27358
448.5 1.27304
449 1.27251
449.5 1.27198
450 1.27145
450.5 1.27092
451 1.27039
451.5 1.26987
452 1.26935
452.5 1.26882
453 1.2683
453.5 1.26778
454 1.26726
454.5 1.26675
455 1.26623
455.5 1.26572
456 1.2652
456.5 1.26469
457 1.26418
457.5 1.26367
458 1.26316
458.5 1.26266
459 1.26215
459.5 1.26165
460 1.26115
460.5 1.26065
461 1.26015
461.5 1.25965
462 1.25915
462.5 1.25866
463 1.25816
463.5 1.25767
464 1.25718
464.5 1.25669
465 1.2562
465.5 1.25571
466 1.25522
466.5 1.25474
467 1.25425
467.5 1.25377
468 1.25329
468.5 1.25281
469 1.25233
469.5 1.25185
470 1.25138
470.5 1.2509
471 1.25043
471.5 1.24996
472 1.24948
472.5 1.24901
473 1.24855
473.5 1.24808
474 1.24761
474.5 1.24715
475 1.24668
475.5 1.24622
476 1.24576
476.5 1.2453
477 1.24484
477.5 1.24438
478 1.24392
478.5 1.24347
479 1.24301
479.5 1.24256
480 1.24211
480.5 1.24166
481 1.24121
481.5 1.24076
482 1.24031
482.5 1.23986
483 1.23942
483.5 1.23898
484 1.23853
484.5 1.23809
485 1.23765
485.5 1.23721
486 1.23677
486.5 1.23634
487 1.2359
487.5 1.23547
488 1.23503
488.5 1.2346
489 1.23417
489.5 1.23374
490 1.23331
490.5 1.23288
491 1.23245
491.5 1.23203
492 1.2316
492.5 1.23118
493 1.23076
493.5 1.23033
494 1.22991
494.5 1.2295
495 1.22908
495.5 1.22866
496 1.22824
496.5 1.22783
497 1.22741
497.5 1.227
498 1.22659
498.5 1.22618
499 1.22577
499.5 1.22536
500 1.22495
500.5 1.22455
501 1.22414
501.5 1.22374
502 1.22333
502.5 1.22293
503 1.22253
503.5 1.22213
504 1.22173
504.5 1.22133
505 1.22093
505.5 1.22054
506 1.22014
506.5 1.21975
507 1.21935
507.5 1.21896
508 1.21857
508.5 1.21818
509 1.21779
509.5 1.2174
510 1.21701
510.5 1.21663
511 1.21624
511.5 1.21586
512 1.21547
512.5 1.21509
513 1.21471
513.5 1.21433
514 1.21395
514.5 1.21357
515 1.21319
515.5 1.21282
516 1.21244
516.5 1.21207
517 1.21169
517.5 1.21132
518 1.21095
518.5 1.21058
519 1.21021
519.5 1.20984
520 1.20947
520.5 1.2091
521 1.20874
521.5 1.20837
522 1.20801
522.5 1.20764
523 1.20728
523.5 1.20692
524 1.20656
524.5 1.2062
525 1.20584
525.5 1.20548
526 1.20512
526.5 1.20477
527 1.20441
527.5 1.20406
528 1.2037
528.5 1.20335
529 1.203
529.5 1.20265
530 1.20229
530.5 1.20195
531 1.2016
531.5 1.20125
532 1.2009
532.5 1.20056
533 1.20021
533.5 1.19987
534 1.19952
534.5 1.19918
535 1.19884
535.5 1.1985
536 1.19816
536.5 1.19782
537 1.19748
537.5 1.19714
538 1.19681
538.5 1.19647
539 1.19614
539.5 1.1958
540 1.19547
540.5 1.19514
541 1.19481
541.5 1.19447
542 1.19414
542.5 1.19382
543 1.19349
543.5 1.19316
544 1.19283
544.5 1.19251
545 1.19218
545.5 1.19186
546 1.19153
546.5 1.19121
547 1.19089
547.5 1.19057
548 1.19025
548.5 1.18993
549 1.18961
549.5 1.18929
550 1.18897
550.5 1.18866
551 1.18834
551.5 1.18803
552 1.18771
552.5 1.1874
553 1.18708
553.5 1.18677
554 1.18646
554.5 1.18615
555 1.18584
555.5 1.18553
556 1.18522
556.5 1.18492
557 1.18461
557.5 1.1843
558 1.184
558.5 1.18369
559 1.18339
559.5 1.18309
560 1.18279
560.5 1.18248
561 1.18218
561.5 1.18188
562 1.18158
562.5 1.18129
563 1.18099
563.5 1.18069
564 1.18039
564.5 1.1801
565 1.1798
565.5 1.17951
566 1.17921
566.5 1.17892
567 1.17863
567.5 1.17834
568 1.17805
568.5 1.17776
569 1.17747
569.5 1.17718
570 1.17689
570.5 1.1766
571 1.17632
571.5 1.17603
572 1.17575
572.5 1.17546
573 1.17518
573.5 1.17489
574 1.17461
574.5 1.17433
575 1.17405
575.5 1.17377
576 1.17349
576.5 1.17321
577 1.17293
577.5 1.17265
578 1.17237
578.5 1.1721
579 1.17182
579.5 1.17155
580 1.17127
580.5 1.171
581 1.17072
581.5 1.17045
582 1.17018
582.5 1.16991
583 1.16964
583.5 1.16937
584 1.1691
584.5 1.16883
585 1.16856
585.5 1.16829
586 1.16802
586.5 1.16776
587 1.16749
587.5 1.16723
588 1.16696
588.5 1.1667
589 1.16644
589.5 1.16617
590 1.16591
590.5 1.16565
591 1.16539
591.5 1.16513
592 1.16487
592.5 1.16461
593 1.16435
593.5 1.16409
594 1.16384
594.5 1.16358
595 1.16332
595.5 1.16307
596 1.16281
596.5 1.16256
597 1.16231
597.5 1.16205
598 1.1618
598.5 1.16155
599 1.1613
599.5 1.16105
600 1.1608
600.5 1.16055
601 1.1603
601.5 1.16005
602 1.1598
602.5 1.15955
603 1.15931
603.5 1.15906
604 1.15881
604.5 1.15857
605 1.15832
605.5 1.15808
606 1.15784
606.5 1.15759
607 1.15735
607.5 1.15711
608 1.15687
608.5 1.15663
609 1.15639
609.5 1.15615
610 1.15591
610.5 1.15567
611 1.15543
611.5 1.1552
612 1.15496
612.5 1.15472
613 1.15449
613.5 1.15425
614 1.15402
614.5 1.15378
615 1.15355
615.5 1.15332
616 1.15308
616.5 1.15285
617 1.15262
617.5 1.15239
618 1.15216
618.5 1.15193
619 1.1517
619.5 1.15147
620 1.15124
620.5 1.15102
621 1.15079
621.5 1.15056
622 1.15034
622.5 1.15011
623 1.14988
623.5 1.14966
624 1.14943
624.5 1.14921
625 1.14899
625.5 1.14876
626 1.14854
626.5 1.14832
627 1.1481
627.5 1.14788
628 1.14766
628.5 1.14744
629 1.14722
629.5 1.147
630 1.14678
630.5 1.14656
631 1.14635
631.5 1.14613
632 1.14591
632.5 1.1457
633 1.14548
633.5 1.14527
634 1.14505
634.5 1.14484
635 1.14462
635.5 1.14441
636 1.1442
636.5 1.14399
637 1.14377
637.5 1.14356
638 1.14335
638.5 1.14314
639 1.14293
639.5 1.14272
640 1.14251
640.5 1.14231
641 1.1421
641.5 1.14189
642 1.14168
642.5 1.14148
643 1.14127
643.5 1.14106
644 1.14086
644.5 1.14065
645 1.14045
645.5 1.14025
646 1.14004
646.5 1.13984
647 1.13964
647.5 1.13943
648 1.13923
648.5 1.13903
649 1.13883
649.5 1.13863
650 1.13843
650.5 1.13823
651 1.13803
651.5 1.13783
652 1.13763
652.5 1.13744
653 1.13724
653.5 1.13704
654 1.13684
654.5 1.13665
655 1.13645
655.5 1.13626
656 1.13606
656.5 1.13587
657 1.13567
657.5 1.13548
658 1.13529
658.5 1.13509
659 1.1349
659.5 1.13471
660 1.13452
660.5 1.13433
661 1.13414
661.5 1.13394
662 1.13375
662.5 1.13357
663 1.13338
663.5 1.13319
664 1.133
664.5 1.13281
665 1.13262
665.5 1.13244
666 1.13225
666.5 1.13206
667 1.13188
667.5 1.13169
668 1.13151
668.5 1.13132
669 1.13114
669.5 1.13095
670 1.13077
670.5 1.13059
671 1.1304
671.5 1.13022
672 1.13004
672.5 1.12986
673 1.12967
673.5 1.12949
674 1.12931
674.5 1.12913
675 1.12895
675.5 1.12877
676 1.12859
676.5 1.12842
677 1.12824
677.5 1.12806
678 1.12788
678.5 1.1277
679 1.12753
679.5 1.12735
680 1.12717
680.5 1.127
681 1.12682
681.5 1.12665
682 1.12647
682.5 1.1263
683 1.12613
683.5 1.12595
684 1.12578
684.5 1.12561
685 1.12543
685.5 1.12526
686 1.12509
686.5 1.12492
687 1.12475
687.5 1.12458
688 1.12441
688.5 1.12424
689 1.12407
689.5 1.1239
690 1.12373
690.5 1.12356
691 1.12339
691.5 1.12322
692 1.12305
692.5 1.12289
693 1.12272
693.5 1.12255
694 1.12239
694.5 1.12222
695 1.12206
695.5 1.12189
696 1.12173
696.5 1.12156
697 1.1214
697.5 1.12123
698 1.12107
698.5 1.12091
699 1.12074
699.5 1.12058
700 1.12042
700.5 1.12026
701 1.12009
701.5 1.11993
702 1.11977
702.5 1.11961
703 1.11945
703.5 1.11929
704 1.11913
704.5 1.11897
705 1.11881
705.5 1.11865
706 1.1185
706.5 1.11834
707 1.11818
707.5 1.11802
708 1.11786
708.5 1.11771
709 1.11755
709.5 1.1174
710 1.11724
710.5 1.11708
711 1.11693
711.5 1.11677
712 1.11662
712.5 1.11646
713 1.11631
713.5 1.11616
714 1.116
714.5 1.11585
715 1.1157
715.5 1.11554
716 1.11539
716.5 1.11524
717 1.11509
717.5 1.11494
718 1.11479
718.5 1.11464
719 1.11449
719.5 1.11433
720 1.11419
720.5 1.11404
721 1.11389
721.5 1.11374
722 1.11359
722.5 1.11344
723 1.11329
723.5 1.11314
724 1.113
724.5 1.11285
725 1.1127
725.5 1.11256
726 1.11241
726.5 1.11226
727 1.11212
727.5 1.11197
728 1.11183
728.5 1.11168
729 1.11154
729.5 1.11139
730 1.11125
730.5 1.1111
731 1.11096
731.5 1.11082
732 1.11067
732.5 1.11053
733 1.11039
733.5 1.11025
734 1.11011
734.5 1.10996
735 1.10982
735.5 1.10968
736 1.10954
736.5 1.1094
737 1.10926
737.5 1.10912
738 1.10898
738.5 1.10884
739 1.1087
739.5 1.10856
740 1.10842
740.5 1.10829
741 1.10815
741.5 1.10801
742 1.10787
742.5 1.10773
743 1.1076
743.5 1.10746
744 1.10732
744.5 1.10719
745 1.10705
745.5 1.10692
746 1.10678
746.5 1.10664
747 1.10651
747.5 1.10637
748 1.10624
748.5 1.10611
749 1.10597
749.5 1.10584
750 1.1057
750.5 1.10557
751 1.10544
751.5 1.10531
752 1.10517
752.5 1.10504
753 1.10491
753.5 1.10478
754 1.10465
754.5 1.10451
755 1.10438
755.5 1.10425
756 1.10412
756.5 1.10399
757 1.10386
757.5 1.10373
758 1.1036
758.5 1.10347
759 1.10334
759.5 1.10322
760 1.10309
760.5 1.10296
761 1.10283
761.5 1.1027
762 1.10257
762.5 1.10245
763 1.10232
763.5 1.10219
764 1.10207
764.5 1.10194
765 1.10181
765.5 1.10169
766 1.10156
766.5 1.10144
767 1.10131
767.5 1.10119
768 1.10106
768.5 1.10094
769 1.10081
769.5 1.10069
770 1.10056
770.5 1.10044
771 1.10032
771.5 1.10019
772 1.10007
772.5 1.09995
773 1.09983
773.5 1.0997
774 1.09958
774.5 1.09946
775 1.09934
775.5 1.09922
776 1.09909
776.5 1.09897
777 1.09885
777.5 1.09873
778 1.09861
778.5 1.09849
779 1.09837
779.5 1.09825
780 1.09813
780.5 1.09801
781 1.09789
781.5 1.09778
782 1.09766
782.5 1.09754
783 1.09742
783.5 1.0973
784 1.09719
784.5 1.09707
785 1.09695
785.5 1.09683
786 1.09672
786.5 1.0966
787 1.09648
787.5 1.09637
788 1.09625
788.5 1.09613
789 1.09602
789.5 1.0959
790 1.09579
790.5 1.09567
791 1.09556
791.5 1.09544
792 1.09533
792.5 1.09522
793 1.0951
793.5 1.09499
794 1.09487
794.5 1.09476
795 1.09465
795.5 1.09453
796 1.09442
796.5 1.09431
797 1.0942
797.5 1.09408
798 1.09397
798.5 1.09386
799 1.09375
799.5 1.09364
800 1.09353
800.5 1.09342
801 1.0933
801.5 1.09319
802 1.09308
802.5 1.09297
803 1.09286
803.5 1.09275
804 1.09264
804.5 1.09253
805 1.09243
805.5 1.09232
806 1.09221
806.5 1.0921
807 1.09199
807.5 1.09188
808 1.09177
808.5 1.09167
809 1.09156
809.5 1.09145
810 1.09134
810.5 1.09124
811 1.09113
811.5 1.09102
812 1.09092
812.5 1.09081
813 1.0907
813.5 1.0906
814 1.09049
814.5 1.09039
815 1.09028
815.5 1.09017
816 1.09007
816.5 1.08996
817 1.08986
817.5 1.08976
818 1.08965
818.5 1.08955
819 1.08944
819.5 1.08934
820 1.08924
820.5 1.08913
821 1.08903
821.5 1.08893
822 1.08882
822.5 1.08872
823 1.08862
823.5 1.08851
824 1.08841
824.5 1.08831
825 1.08821
825.5 1.08811
826 1.088
826.5 1.0879
827 1.0878
827.5 1.0877
828 1.0876
828.5 1.0875
829 1.0874
829.5 1.0873
830 1.0872
830.5 1.0871
831 1.087
831.5 1.0869
832 1.0868
832.5 1.0867
833 1.0866
833.5 1.0865
834 1.0864
834.5 1.0863
835 1.08621
835.5 1.08611
836 1.08601
836.5 1.08591
837 1.08581
837.5 1.08572
838 1.08562
838.5 1.08552
839 1.08542
839.5 1.08533
840 1.08523
840.5 1.08513
841 1.08504
841.5 1.08494
842 1.08484
842.5 1.08475
843 1.08465
843.5 1.08456
844 1.08446
844.5 1.08437
845 1.08427
845.5 1.08418
846 1.08408
846.5 1.08399
847 1.08389
847.5 1.0838
848 1.0837
848.5 1.08361
849 1.08351
849.5 1.08342
850 1.08333
850.5 1.08323
851 1.08314
851.5 1.08305
852 1.08295
852.5 1.08286
853 1.08277
853.5 1.08268
854 1.08258
854.5 1.08249
855 1.0824
855.5 1.08231
856 1.08222
856.5 1.08212
857 1.08203
857.5 1.08194
858 1.08185
858.5 1.08176
859 1.08167
859.5 1.08158
860 1.08149
860.5 1.0814
861 1.08131
861.5 1.08122
862 1.08113
862.5 1.08104
863 1.08095
863.5 1.08086
864 1.08077
864.5 1.08068
865 1.08059
865.5 1.0805
866 1.08041
866.5 1.08032
867 1.08023
867.5 1.08015
868 1.08006
868.5 1.07997
869 1.07988
869.5 1.07979
870 1.07971
870.5 1.07962
871 1.07953
871.5 1.07944
872 1.07936
872.5 1.07927
873 1.07918
873.5 1.0791
874 1.07901
874.5 1.07892
875 1.07884
875.5 1.07875
876 1.07867
876.5 1.07858
877 1.07849
877.5 1.07841
878 1.07832
878.5 1.07824
879 1.07815
879.5 1.07807
880 1.07798
880.5 1.0779
881 1.07781
881.5 1.07773
882 1.07765
882.5 1.07756
883 1.07748
883.5 1.07739
884 1.07731
884.5 1.07723
885 1.07714
885.5 1.07706
886 1.07698
886.5 1.07689
887 1.07681
887.5 1.07673
888 1.07664
888.5 1.07656
889 1.07648
889.5 1.0764
890 1.07631
890.5 1.07623
891 1.07615
891.5 1.07607
892 1.07599
892.5 1.07591
893 1.07582
893.5 1.07574
894 1.07566
894.5 1.07558
895 1.0755
895.5 1.07542
896 1.07534
896.5 1.07526
897 1.07518
897.5 1.0751
898 1.07502
898.5 1.07494
899 1.07486
899.5 1.07478
900 1.0747
900.5 1.07462
901 1.07454
901.5 1.07446
902 1.07438
902.5 1.0743
903 1.07422
903.5 1.07414
904 1.07407
904.5 1.07399
905 1.07391
905.5 1.07383
906 1.07375
906.5 1.07368
907 1.0736
907.5 1.07352
908 1.07344
908.5 1.07336
909 1.07329
909.5 1.07321
910 1.07313
910.5 1.07306
911 1.07298
911.5 1.0729
912 1.07283
912.5 1.07275
913 1.07267
913.5 1.0726
914 1.07252
914.5 1.07244
915 1.07237
915.5 1.07229
916 1.07222
916.5 1.07214
917 1.07207
917.5 1.07199
918 1.07191
918.5 1.07184
919 1.07176
919.5 1.07169
920 1.07161
920.5 1.07154
921 1.07147
921.5 1.07139
922 1.07132
922.5 1.07124
923 1.07117
923.5 1.07109
924 1.07102
924.5 1.07095
925 1.07087
925.5 1.0708
926 1.07073
926.5 1.07065
927 1.07058
927.5 1.07051
928 1.07043
928.5 1.07036
929 1.07029
929.5 1.07022
930 1.07014
930.5 1.07007
931 1.07
931.5 1.06993
932 1.06985
932.5 1.06978
933 1.06971
933.5 1.06964
934 1.06957
934.5 1.0695
935 1.06942
935.5 1.06935
936 1.06928
936.5 1.06921
937 1.06914
937.5 1.06907
938 1.069
938.5 1.06893
939 1.06886
939.5 1.06879
940 1.06872
940.5 1.06865
941 1.06858
941.5 1.06851
942 1.06844
942.5 1.06837
943 1.0683
943.5 1.06823
944 1.06816
944.5 1.06809
945 1.06802
945.5 1.06795
946 1.06788
946.5 1.06781
947 1.06774
947.5 1.06767
948 1.06761
948.5 1.06754
949 1.06747
949.5 1.0674
950 1.06733
950.5 1.06726
951 1.0672
951.5 1.06713
952 1.06706
952.5 1.06699
953 1.06693
953.5 1.06686
954 1.06679
954.5 1.06672
955 1.06666
955.5 1.06659
956 1.06652
956.5 1.06645
957 1.06639
957.5 1.06632
958 1.06625
958.5 1.06619
959 1.06612
959.5 1.06606
960 1.06599
960.5 1.06592
961 1.06586
961.5 1.06579
962 1.06573
962.5 1.06566
963 1.06559
963.5 1.06553
964 1.06546
964.5 1.0654
965 1.06533
965.5 1.06527
966 1.0652
966.5 1.06514
967 1.06507
967.5 1.06501
968 1.06494
968.5 1.06488
969 1.06481
969.5 1.06475
970 1.06469
970.5 1.06462
971 1.06456
971.5 1.06449
972 1.06443
972.5 1.06437
973 1.0643
973.5 1.06424
974 1.06417
974.5 1.06411
975 1.06405
975.5 1.06398
976 1.06392
976.5 1.06386
977 1.0638
977.5 1.06373
978 1.06367
978.5 1.06361
979 1.06354
979.5 1.06348
980 1.06342
980.5 1.06336
981 1.06329
981.5 1.06323
982 1.06317
982.5 1.06311
983 1.06305
983.5 1.06298
984 1.06292
984.5 1.06286
985 1.0628
985.5 1.06274
986 1.06268
986.5 1.06262
987 1.06255
987.5 1.06249
988 1.06243
988.5 1.06237
989 1.06231
989.5 1.06225
990 1.06219
990.5 1.06213
991 1.06207
991.5 1.06201
992 1.06195
992.5 1.06189
993 1.06183
993.5 1.06177
994 1.06171
994.5 1.06165
995 1.06159
995.5 1.06153
996 1.06147
996.5 1.06141
997 1.06135
997.5 1.06129
998 1.06123
998.5 1.06117
999 1.06111
999.5 1.06105
1000 1.06099
1000.5 1.06094
1001 1.06088
1001.5 1.06082
1002 1.06076
1002.5 1.0607
1003 1.06064
1003.5 1.06058
1004 1.06053
1004.5 1.06047
1005 1.06041
1005.5 1.06035
1006 1.06029
1006.5 1.06024
1007 1.06018
1007.5 1.06012
1008 1.06006
1008.5 1.06001
1009 1.05995
1009.5 1.05989
1010 1.05983
1010.5 1.05978
1011 1.05972
1011.5 1.05966
1012 1.05961
1012.5 1.05955
1013 1.05949
1013.5 1.05944
1014 1.05938
1014.5 1.05932
1015 1.05927
1015.5 1.05921
1016 1.05915
1016.5 1.0591
1017 1.05904
1017.5 1.05898
1018 1.05893
1018.5 1.05887
1019 1.05882
1019.5 1.05876
1020 1.05871
1020.5 1.05865
1021 1.05859
1021.5 1.05854
1022 1.05848
1022.5 1.05843
1023 1.05837
1023.5 1.05832
1024 1.05826
1024.5 1.05821
1025 1.05815
1025.5 1.0581
1026 1.05804
1026.5 1.05799
1027 1.05793
1027.5 1.05788
1028 1.05783
1028.5 1.05777
1029 1.05772
1029.5 1.05766
1030 1.05761
1030.5 1.05755
1031 1.0575
1031.5 1.05745
1032 1.05739
1032.5 1.05734
1033 1.05729
1033.5 1.05723
1034 1.05718
1034.5 1.05712
1035 1.05707
1035.5 1.05702
1036 1.05696
1036.5 1.05691
1037 1.05686
1037.5 1.05681
1038 1.05675
1038.5 1.0567
1039 1.05665
1039.5 1.05659
1040 1.05654
1040.5 1.05649
1041 1.05644
1041.5 1.05638
1042 1.05633
1042.5 1.05628
1043 1.05623
1043.5 1.05618
1044 1.05612
1044.5 1.05607
1045 1.05602
1045.5 1.05597
1046 1.05592
1046.5 1.05586
1047 1.05581
1047.5 1.05576
1048 1.05571
1048.5 1.05566
1049 1.05561
1049.5 1.05556
1050 1.0555
1050.5 1.05545
1051 1.0554
1051.5 1.05535
1052 1.0553
1052.5 1.05525
1053 1.0552
1053.5 1.05515
1054 1.0551
1054.5 1.05505
1055 1.055
1055.5 1.05495
1056 1.05489
1056.5 1.05484
1057 1.05479
1057.5 1.05474
1058 1.05469
1058.5 1.05464
1059 1.05459
1059.5 1.05454
1060 1.05449
1060.5 1.05444
1061 1.05439
1061.5 1.05435
1062 1.0543
1062.5 1.05425
1063 1.0542
1063.5 1.05415
1064 1.0541
1064.5 1.05405
1065 1.054
1065.5 1.05395
1066 1.0539
1066.5 1.05385
1067 1.0538
1067.5 1.05375
1068 1.05371
1068.5 1.05366
1069 1.05361
1069.5 1.05356
1070 1.05351
1070.5 1.05346
1071 1.05341
1071.5 1.05337
1072 1.05332
1072.5 1.05327
1073 1.05322
1073.5 1.05317
1074 1.05313
1074.5 1.05308
1075 1.05303
1075.5 1.05298
1076 1.05293
1076.5 1.05289
1077 1.05284
1077.5 1.05279
1078 1.05274
1078.5 1.0527
1079 1.05265
1079.5 1.0526
1080 1.05255
1080.5 1.05251
1081 1.05246
1081.5 1.05241
1082 1.05237
1082.5 1.05232
1083 1.05227
1083.5 1.05223
1084 1.05218
1084.5 1.05213
1085 1.05209
1085.5 1.05204
1086 1.05199
1086.5 1.05195
1087 1.0519
1087.5 1.05185
1088 1.05181
1088.5 1.05176
1089 1.05172
1089.5 1.05167
1090 1.05162
1090.5 1.05158
1091 1.05153
1091.5 1.05149
1092 1.05144
1092.5 1.05139
1093 1.05135
1093.5 1.0513
1094 1.05126
1094.5 1.05121
1095 1.05117
1095.5 1.05112
1096 1.05108
1096.5 1.05103
1097 1.05099
1097.5 1.05094
1098 1.0509
1098.5 1.05085
1099 1.05081
1099.5 1.05076
1100 1.05072
1100.5 1.05067
1101 1.05063
1101.5 1.05058
1102 1.05054
1102.5 1.05049
1103 1.05045
1103.5 1.0504
1104 1.05036
1104.5 1.05032
1105 1.05027
1105.5 1.05023
1106 1.05018
1106.5 1.05014
1107 1.0501
1107.5 1.05005
1108 1.05001
1108.5 1.04996
1109 1.04992
1109.5 1.04988
1110 1.04983
1110.5 1.04979
1111 1.04975
1111.5 1.0497
1112 1.04966
1112.5 1.04962
1113 1.04957
1113.5 1.04953
1114 1.04949
1114.5 1.04944
1115 1.0494
1115.5 1.04936
1116 1.04931
1116.5 1.04927
1117 1.04923
1117.5 1.04918
1118 1.04914
1118.5 1.0491
1119 1.04906
1119.5 1.04901
1120 1.04897
1120.5 1.04893
1121 1.04889
1121.5 1.04884
1122 1.0488
1122.5 1.04876
1123 1.04872
1123.5 1.04868
1124 1.04863
1124.5 1.04859
1125 1.04855
1125.5 1.04851
1126 1.04847
1126.5 1.04842
1127 1.04838
1127.5 1.04834
1128 1.0483
1128.5 1.04826
1129 1.04822
1129.5 1.04817
1130 1.04813
1130.5 1.04809
1131 1.04805
1131.5 1.04801
1132 1.04797
1132.5 1.04793
1133 1.04788
1133.5 1.04784
1134 1.0478
1134.5 1.04776
1135 1.04772
1135.5 1.04768
1136 1.04764
1136.5 1.0476
1137 1.04756
1137.5 1.04752
1138 1.04748
1138.5 1.04744
1139 1.0474
1139.5 1.04736
1140 1.04731
1140.5 1.04727
1141 1.04723
1141.5 1.04719
1142 1.04715
1142.5 1.04711
1143 1.04707
1143.5 1.04703
1144 1.04699
1144.5 1.04695
1145 1.04691
1145.5 1.04687
1146 1.04683
1146.5 1.04679
1147 1.04675
1147.5 1.04671
1148 1.04668
1148.5 1.04664
1149 1.0466
1149.5 1.04656
1150 1.04652
1150.5 1.04648
1151 1.04644
1151.5 1.0464
1152 1.04636
1152.5 1.04632
1153 1.04628
1153.5 1.04624
1154 1.0462
1154.5 1.04617
1155 1.04613
1155.5 1.04609
1156 1.04605
1156.5 1.04601
1157 1.04597
1157.5 1.04593
1158 1.04589
1158.5 1.04586
1159 1.04582
1159.5 1.04578
1160 1.04574
1160.5 1.0457
1161 1.04566
1161.5 1.04562
1162 1.04559
1162.5 1.04555
1163 1.04551
1163.5 1.04547
1164 1.04543
1164.5 1.0454
1165 1.04536
1165.5 1.04532
1166 1.04528
1166.5 1.04524
1167 1.04521
1167.5 1.04517
1168 1.04513
1168.5 1.04509
1169 1.04506
1169.5 1.04502
1170 1.04498
1170.5 1.04494
1171 1.04491
1171.5 1.04487
1172 1.04483
1172.5 1.04479
1173 1.04476
1173.5 1.04472
1174 1.04468
1174.5 1.04465
1175 1.04461
1175.5 1.04457
1176 1.04454
1176.5 1.0445
1177 1.04446
1177.5 1.04442
1178 1.04439
1178.5 1.04435
1179 1.04431
1179.5 1.04428
1180 1.04424
1180.5 1.04421
1181 1.04417
1181.5 1.04413
1182 1.0441
1182.5 1.04406
1183 1.04402
1183.5 1.04399
1184 1.04395
1184.5 1.04391
1185 1.04388
1185.5 1.04384
1186 1.04381
1186.5 1.04377
1187 1.04373
1187.5 1.0437
1188 1.04366
1188.5 1.04363
1189 1.04359
1189.5 1.04356
1190 1.04352
1190.5 1.04348
1191 1.04345
1191.5 1.04341
1192 1.04338
1192.5 1.04334
1193 1.04331
1193.5 1.04327
1194 1.04324
1194.5 1.0432
1195 1.04317
1195.5 1.04313
1196 1.0431
1196.5 1.04306
1197 1.04302
1197.5 1.04299
1198 1.04295
1198.5 1.04292
1199 1.04288
1199.5 1.04285
1200 1.04282
1200.5 1.04278
1201 1.04275
1201.5 1.04271
1202 1.04268
1202.5 1.04264
1203 1.04261
1203.5 1.04257
1204 1.04254
1204.5 1.0425
1205 1.04247
1205.5 1.04244
1206 1.0424
1206.5 1.04237
1207 1.04233
1207.5 1.0423
1208 1.04226
1208.5 1.04223
1209 1.0422
1209.5 1.04216
1210 1.04213
1210.5 1.04209
1211 1.04206
1211.5 1.04203
1212 1.04199
1212.5 1.04196
1213 1.04192
1213.5 1.04189
1214 1.04186
1214.5 1.04182
1215 1.04179
1215.5 1.04176
1216 1.04172
1216.5 1.04169
1217 1.04166
1217.5 1.04162
1218 1.04159
1218.5 1.04156
1219 1.04152
1219.5 1.04149
1220 1.04146
1220.5 1.04142
1221 1.04139
1221.5 1.04136
1222 1.04132
1222.5 1.04129
1223 1.04126
1223.5 1.04123
1224 1.04119
1224.5 1.04116
1225 1.04113
1225.5 1.04109
1226 1.04106
1226.5 1.04103
1227 1.041
1227.5 1.04096
1228 1.04093
1228.5 1.0409
1229 1.04087
1229.5 1.04083
1230 1.0408
1230.5 1.04077
1231 1.04074
1231.5 1.0407
1232 1.04067
1232.5 1.04064
1233 1.04061
1233.5 1.04058
1234 1.04054
1234.5 1.04051
1235 1.04048
1235.5 1.04045
1236 1.04041
1236.5 1.04038
1237 1.04035
1237.5 1.04032
1238 1.04029
1238.5 1.04026
1239 1.04022
1239.5 1.04019
1240 1.04016
1240.5 1.04013
1241 1.0401
1241.5 1.04007
1242 1.04003
1242.5 1.04
1243 1.03997
1243.5 1.03994
1244 1.03991
1244.5 1.03988
1245 1.03985
1245.5 1.03981
1246 1.03978
1246.5 1.03975
1247 1.03972
1247.5 1.03969
1248 1.03966
1248.5 1.03963
1249 1.0396
1249.5 1.03957
1250 1.03954
1250.5 1.0395
1251 1.03947
1251.5 1.03944
1252 1.03941
1252.5 1.03938
1253 1.03935
1253.5 1.03932
1254 1.03929
1254.5 1.03926
1255 1.03923
1255.5 1.0392
1256 1.03917
1256.5 1.03914
1257 1.03911
1257.5 1.03908
1258 1.03905
1258.5 1.03901
1259 1.03898
1259.5 1.03895
1260 1.03892
1260.5 1.03889
1261 1.03886
1261.5 1.03883
1262 1.0388
1262.5 1.03877
1263 1.03874
1263.5 1.03871
1264 1.03868
1264.5 1.03865
1265 1.03862
1265.5 1.03859
1266 1.03856
1266.5 1.03853
1267 1.0385
1267.5 1.03848
1268 1.03845
1268.5 1.03842
1269 1.03839
1269.5 1.03836
1270 1.03833
1270.5 1.0383
1271 1.03827
1271.5 1.03824
1272 1.03821
1272.5 1.03818
1273 1.03815
1273.5 1.03812
1274 1.03809
1274.5 1.03806
1275 1.03803
1275.5 1.038
1276 1.03798
1276.5 1.03795
1277 1.03792
1277.5 1.03789
1278 1.03786
1278.5 1.03783
1279 1.0378
1279.5 1.03777
1280 1.03774
1280.5 1.03771
1281 1.03769
1281.5 1.03766
1282 1.03763
1282.5 1.0376
1283 1.03757
1283.5 1.03754
1284 1.03751
1284.5 1.03749
1285 1.03746
1285.5 1.03743
1286 1.0374
1286.5 1.03737
1287 1.03734
1287.5 1.03731
1288 1.03729
1288.5 1.03726
1289 1.03723
1289.5 1.0372
1290 1.03717
1290.5 1.03715
1291 1.03712
1291.5 1.03709
1292 1.03706
1292.5 1.03703
1293 1.037
1293.5 1.03698
1294 1.03695
1294.5 1.03692
1295 1.03689
1295.5 1.03687
1296 1.03684
1296.5 1.03681
1297 1.03678
1297.5 1.03675
1298 1.03673
1298.5 1.0367
1299 1.03667
1299.5 1.03664
1300 1.03662
1300.5 1.03659
1301 1.03656
1301.5 1.03653
1302 1.03651
1302.5 1.03648
1303 1.03645
1303.5 1.03642
1304 1.0364
1304.5 1.03637
1305 1.03634
1305.5 1.03631
1306 1.03629
1306.5 1.03626
1307 1.03623
1307.5 1.03621
1308 1.03618
1308.5 1.03615
1309 1.03612
1309.5 1.0361
1310 1.03607
1310.5 1.03604
1311 1.03602
1311.5 1.03599
1312 1.03596
1312.5 1.03594
1313 1.03591
1313.5 1.03588
1314 1.03586
1314.5 1.03583
1315 1.0358
1315.5 1.03578
1316 1.03575
1316.5 1.03572
1317 1.0357
1317.5 1.03567
1318 1.03564
1318.5 1.03562
1319 1.03559
1319.5 1.03556
1320 1.03554
1320.5 1.03551
1321 1.03548
1321.5 1.03546
1322 1.03543
1322.5 1.03541
1323 1.03538
1323.5 1.03535
1324 1.03533
1324.5 1.0353
1325 1.03528
1325.5 1.03525
1326 1.03522
1326.5 1.0352
1327 1.03517
1327.5 1.03514
1328 1.03512
1328.5 1.03509
1329 1.03507
1329.5 1.03504
1330 1.03502
1330.5 1.03499
1331 1.03496
1331.5 1.03494
1332 1.03491
1332.5 1.03489
1333 1.03486
1333.5 1.03484
1334 1.03481
1334.5 1.03478
1335 1.03476
1335.5 1.03473
1336 1.03471
1336.5 1.03468
1337 1.03466
1337.5 1.03463
1338 1.03461
1338.5 1.03458
1339 1.03456
1339.5 1.03453
1340 1.03451
1340.5 1.03448
1341 1.03446
1341.5 1.03443
1342 1.0344
1342.5 1.03438
1343 1.03435
1343.5 1.03433
1344 1.0343
1344.5 1.03428
1345 1.03425
1345.5 1.03423
1346 1.0342
1346.5 1.03418
1347 1.03415
1347.5 1.03413
1348 1.03411
1348.5 1.03408
1349 1.03406
1349.5 1.03403
1350 1.03401
1350.5 1.03398
1351 1.03396
1351.5 1.03393
1352 1.03391
1352.5 1.03388
1353 1.03386
1353.5 1.03383
1354 1.03381
1354.5 1.03379
1355 1.03376
1355.5 1.03374
1356 1.03371
1356.5 1.03369
1357 1.03366
1357.5 1.03364
1358 1.03361
1358.5 1.03359
1359 1.03357
1359.5 1.03354
1360 1.03352
1360.5 1.03349
1361 1.03347
1361.5 1.03345
1362 1.03342
1362.5 1.0334
1363 1.03337
1363.5 1.03335
1364 1.03333
1364.5 1.0333
1365 1.03328
1365.5 1.03325
1366 1.03323
1366.5 1.03321
1367 1.03318
1367.5 1.03316
1368 1.03313
1368.5 1.03311
1369 1.03309
1369.5 1.03306
1370 1.03304
1370.5 1.03302
1371 1.03299
1371.5 1.03297
1372 1.03295
1372.5 1.03292
1373 1.0329
1373.5 1.03287
1374 1.03285
1374.5 1.03283
1375 1.0328
1375.5 1.03278
1376 1.03276
1376.5 1.03273
1377 1.03271
1377.5 1.03269
1378 1.03266
1378.5 1.03264
1379 1.03262
1379.5 1.03259
1380 1.03257
1380.5 1.03255
1381 1.03253
1381.5 1.0325
1382 1.03248
1382.5 1.03246
1383 1.03243
1383.5 1.03241
1384 1.03239
1384.5 1.03236
1385 1.03234
1385.5 1.03232
1386 1.0323
1386.5 1.03227
1387 1.03225
1387.5 1.03223
1388 1.0322
1388.5 1.03218
1389 1.03216
1389.5 1.03214
1390 1.03211
1390.5 1.03209
1391 1.03207
1391.5 1.03205
1392 1.03202
1392.5 1.032
1393 1.03198
1393.5 1.03195
1394 1.03193
1394.5 1.03191
1395 1.03189
1395.5 1.03187
1396 1.03184
1396.5 1.03182
1397 1.0318
1397.5 1.03178
1398 1.03175
1398.5 1.03173
1399 1.03171
1399.5 1.03169
1400 1.03166
1400.5 1.03164
1401 1.03162
1401.5 1.0316
1402 1.03158
1402.5 1.03155
1403 1.03153
1403.5 1.03151
1404 1.03149
1404.5 1.03147
1405 1.03144
1405.5 1.03142
1406 1.0314
1406.5 1.03138
1407 1.03136
1407.5 1.03133
1408 1.03131
1408.5 1.03129
1409 1.03127
1409.5 1.03125
1410 1.03122
1410.5 1.0312
1411 1.03118
1411.5 1.03116
1412 1.03114
1412.5 1.03112
1413 1.03109
1413.5 1.03107
1414 1.03105
1414.5 1.03103
1415 1.03101
1415.5 1.03099
1416 1.03097
1416.5 1.03094
1417 1.03092
1417.5 1.0309
1418 1.03088
1418.5 1.03086
1419 1.03084
1419.5 1.03082
1420 1.03079
1420.5 1.03077
1421 1.03075
1421.5 1.03073
1422 1.03071
1422.5 1.03069
1423 1.03067
1423.5 1.03065
1424 1.03062
1424.5 1.0306
1425 1.03058
1425.5 1.03056
1426 1.03054
1426.5 1.03052
1427 1.0305
1427.5 1.03048
1428 1.03046
1428.5 1.03044
1429 1.03041
1429.5 1.03039
1430 1.03037
1430.5 1.03035
1431 1.03033
1431.5 1.03031
1432 1.03029
1432.5 1.03027
1433 1.03025
1433.5 1.03023
1434 1.03021
1434.5 1.03019
1435 1.03017
1435.5 1.03014
1436 1.03012
1436.5 1.0301
1437 1.03008
1437.5 1.03006
1438 1.03004
1438.5 1.03002
1439 1.03
1439.5 1.02998
1440 1.02996
1440.5 1.02994
1441 1.02992
1441.5 1.0299
1442 1.02988
1442.5 1.02986
1443 1.02984
1443.5 1.02982
1444 1.0298
1444.5 1.02978
1445 1.02976
1445.5 1.02974
1446 1.02972
1446.5 1.0297
1447 1.02968
1447.5 1.02966
1448 1.02964
1448.5 1.02962
1449 1.0296
1449.5 1.02958
1450 1.02956
1450.5 1.02954
1451 1.02952
1451.5 1.0295
1452 1.02948
1452.5 1.02946
1453 1.02944
1453.5 1.02942
1454 1.0294
1454.5 1.02938
1455 1.02936
1455.5 1.02934
1456 1.02932
1456.5 1.0293
1457 1.02928
1457.5 1.02926
1458 1.02924
1458.5 1.02922
1459 1.0292
1459.5 1.02918
1460 1.02916
1460.5 1.02914
1461 1.02912
1461.5 1.0291
1462 1.02908
1462.5 1.02906
1463 1.02904
1463.5 1.02902
1464 1.029
1464.5 1.02898
1465 1.02896
1465.5 1.02894
1466 1.02892
1466.5 1.0289
1467 1.02889
1467.5 1.02887
1468 1.02885
1468.5 1.02883
1469 1.02881
1469.5 1.02879
1470 1.02877
1470.5 1.02875
1471 1.02873
1471.5 1.02871
1472 1.02869
1472.5 1.02867
1473 1.02865
1473.5 1.02864
1474 1.02862
1474.5 1.0286
1475 1.02858
1475.5 1.02856
1476 1.02854
1476.5 1.02852
1477 1.0285
1477.5 1.02848
1478 1.02846
1478.5 1.02845
1479 1.02843
1479.5 1.02841
1480 1.02839
1480.5 1.02837
1481 1.02835
1481.5 1.02833
1482 1.02831
1482.5 1.02829
1483 1.02828
1483.5 1.02826
1484 1.02824
1484.5 1.02822
1485 1.0282
1485.5 1.02818
1486 1.02816
1486.5 1.02815
1487 1.02813
1487.5 1.02811
1488 1.02809
1488.5 1.02807
1489 1.02805
1489.5 1.02803
1490 1.02802
1490.5 1.028
1491 1.02798
1491.5 1.02796
1492 1.02794
1492.5 1.02792
1493 1.0279
1493.5 1.02789
1494 1.02787
1494.5 1.02785
1495 1.02783
1495.5 1.02781
1496 1.02779
1496.5 1.02778
1497 1.02776
1497.5 1.02774
1498 1.02772
1498.5 1.0277
1499 1.02769
1499.5 1.02767
1500 1.02765
1500.5 1.02763
1501 1.02761
1501.5 1.02759
1502 1.02758
1502.5 1.02756
1503 1.02754
1503.5 1.02752
1504 1.0275
1504.5 1.02749
1505 1.02747
1505.5 1.02745
1506 1.02743
1506.5 1.02741
1507 1.0274
1507.5 1.02738
1508 1.02736
1508.5 1.02734
1509 1.02733
1509.5 1.02731
1510 1.02729
1510.5 1.02727
1511 1.02725
1511.5 1.02724
1512 1.02722
1512.5 1.0272
1513 1.02718
1513.5 1.02717
1514 1.02715
1514.5 1.02713
1515 1.02711
1515.5 1.0271
1516 1.02708
1516.5 1.02706
1517 1.02704
1517.5 1.02702
1518 1.02701
1518.5 1.02699
1519 1.02697
1519.5 1.02695
1520 1.02694
1520.5 1.02692
1521 1.0269
1521.5 1.02689
1522 1.02687
1522.5 1.02685
1523 1.02683
1523.5 1.02682
1524 1.0268
1524.5 1.02678
1525 1.02676
1525.5 1.02675
1526 1.02673
1526.5 1.02671
1527 1.02669
1527.5 1.02668
1528 1.02666
1528.5 1.02664
1529 1.02663
1529.5 1.02661
1530 1.02659
1530.5 1.02657
1531 1.02656
1531.5 1.02654
1532 1.02652
1532.5 1.02651
1533 1.02649
1533.5 1.02647
1534 1.02646
1534.5 1.02644
1535 1.02642
1535.5 1.0264
1536 1.02639
1536.5 1.02637
1537 1.02635
1537.5 1.02634
1538 1.02632
1538.5 1.0263
1539 1.02629
1539.5 1.02627
1540 1.02625
1540.5 1.02624
1541 1.02622
1541.5 1.0262
1542 1.02619
1542.5 1.02617
1543 1.02615
1543.5 1.02614
1544 1.02612
1544.5 1.0261
1545 1.02609
1545.5 1.02607
1546 1.02605
1546.5 1.02604
1547 1.02602
1547.5 1.026
1548 1.02599
1548.5 1.02597
1549 1.02595
1549.5 1.02594
1550 1.02592
1550.5 1.0259
1551 1.02589
1551.5 1.02587
1552 1.02585
1552.5 1.02584
1553 1.02582
1553.5 1.02581
1554 1.02579
1554.5 1.02577
1555 1.02576
1555.5 1.02574
1556 1.02572
1556.5 1.02571
1557 1.02569
1557.5 1.02568
1558 1.02566
1558.5 1.02564
1559 1.02563
1559.5 1.02561
1560 1.02559
1560.5 1.02558
1561 1.02556
1561.5 1.02555
1562 1.02553
1562.5 1.02551
1563 1.0255
1563.5 1.02548
1564 1.02547
1564.5 1.02545
1565 1.02543
1565.5 1.02542
1566 1.0254
1566.5 1.02539
1567 1.02537
1567.5 1.02535
1568 1.02534
1568.5 1.02532
1569 1.02531
1569.5 1.02529
1570 1.02527
1570.5 1.02526
1571 1.02524
1571.5 1.02523
1572 1.02521
1572.5 1.02519
1573 1.02518
1573.5 1.02516
1574 1.02515
1574.5 1.02513
1575 1.02512
1575.5 1.0251
1576 1.02508
1576.5 1.02507
1577 1.02505
1577.5 1.02504
1578 1.02502
1578.5 1.02501
1579 1.02499
1579.5 1.02498
1580 1.02496
1580.5 1.02494
1581 1.02493
1581.5 1.02491
1582 1.0249
1582.5 1.02488
1583 1.02487
1583.5 1.02485
1584 1.02484
1584.5 1.02482
1585 1.0248
1585.5 1.02479
1586 1.02477
1586.5 1.02476
1587 1.02474
1587.5 1.02473
1588 1.02471
1588.5 1.0247
1589 1.02468
1589.5 1.02467
1590 1.02465
1590.5 1.02464
1591 1.02462
1591.5 1.02461
1592 1.02459
1592.5 1.02457
1593 1.02456
1593.5 1.02454
1594 1.02453
1594.5 1.02451
1595 1.0245
1595.5 1.02448
1596 1.02447
1596.5 1.02445
1597 1.02444
1597.5 1.02442
1598 1.02441
1598.5 1.02439
1599 1.02438
1599.5 1.02436
1600 1.02435
1600.5 1.02433
1601 1.02432
1601.5 1.0243
1602 1.02429
1602.5 1.02427
1603 1.02426
1603.5 1.02424
1604 1.02423
1604.5 1.02421
1605 1.0242
1605.5 1.02418
1606 1.02417
1606.5 1.02415
1607 1.02414
1607.5 1.02412
1608 1.02411
1608.5 1.0241
1609 1.02408
1609.5 1.02407
1610 1.02405
1610.5 1.02404
1611 1.02402
1611.5 1.02401
1612 1.02399
1612.5 1.02398
1613 1.02396
1613.5 1.02395
1614 1.02393
1614.5 1.02392
1615 1.0239
1615.5 1.02389
1616 1.02388
1616.5 1.02386
1617 1.02385
1617.5 1.02383
1618 1.02382
1618.5 1.0238
1619 1.02379
1619.5 1.02377
1620 1.02376
1620.5 1.02374
1621 1.02373
1621.5 1.02372
1622 1.0237
1622.5 1.02369
1623 1.02367
1623.5 1.02366
1624 1.02364
1624.5 1.02363
1625 1.02362
1625.5 1.0236
1626 1.02359
1626.5 1.02357
1627 1.02356
1627.5 1.02354
1628 1.02353
1628.5 1.02352
1629 1.0235
1629.5 1.02349
1630 1.02347
1630.5 1.02346
1631 1.02344
1631.5 1.02343
1632 1.02342
1632.5 1.0234
1633 1.02339
1633.5 1.02337
1634 1.02336
1634.5 1.02335
1635 1.02333
1635.5 1.02332
1636 1.0233
1636.5 1.02329
1637 1.02327
1637.5 1.02326
1638 1.02325
1638.5 1.02323
1639 1.02322
1639.5 1.0232
1640 1.02319
1640.5 1.02318
1641 1.02316
1641.5 1.02315
1642 1.02314
1642.5 1.02312
1643 1.02311
1643.5 1.02309
1644 1.02308
1644.5 1.02307
1645 1.02305
1645.5 1.02304
1646 1.02302
1646.5 1.02301
1647 1.023
1647.5 1.02298
1648 1.02297
1648.5 1.02296
1649 1.02294
1649.5 1.02293
1650 1.02291
1650.5 1.0229
1651 1.02289
1651.5 1.02287
1652 1.02286
1652.5 1.02285
1653 1.02283
1653.5 1.02282
1654 1.02281
1654.5 1.02279
1655 1.02278
1655.5 1.02276
1656 1.02275
1656.5 1.02274
1657 1.02272
1657.5 1.02271
1658 1.0227
1658.5 1.02268
1659 1.02267
1659.5 1.02266
1660 1.02264
1660.5 1.02263
1661 1.02262
1661.5 1.0226
1662 1.02259
1662.5 1.02258
1663 1.02256
1663.5 1.02255
1664 1.02254
1664.5 1.02252
1665 1.02251
1665.5 1.0225
1666 1.02248
1666.5 1.02247
1667 1.02246
1667.5 1.02244
1668 1.02243
1668.5 1.02242
1669 1.0224
1669.5 1.02239
1670 1.02238
1670.5 1.02236
1671 1.02235
1671.5 1.02234
1672 1.02232
1672.5 1.02231
1673 1.0223
1673.5 1.02228
1674 1.02227
1674.5 1.02226
1675 1.02224
1675.5 1.02223
1676 1.02222
1676.5 1.02221
1677 1.02219
1677.5 1.02218
1678 1.02217
1678.5 1.02215
1679 1.02214
1679.5 1.02213
1680 1.02211
1680.5 1.0221
1681 1.02209
1681.5 1.02207
1682 1.02206
1682.5 1.02205
1683 1.02204
1683.5 1.02202
1684 1.02201
1684.5 1.022
1685 1.02198
1685.5 1.02197
1686 1.02196
1686.5 1.02195
1687 1.02193
1687.5 1.02192
1688 1.02191
1688.5 1.02189
1689 1.02188
1689.5 1.02187
1690 1.02186
1690.5 1.02184
1691 1.02183
1691.5 1.02182
1692 1.02181
1692.5 1.02179
1693 1.02178
1693.5 1.02177
1694 1.02175
1694.5 1.02174
1695 1.02173
1695.5 1.02172
1696 1.0217
1696.5 1.02169
1697 1.02168
1697.5 1.02167
1698 1.02165
1698.5 1.02164
1699 1.02163
1699.5 1.02162
1700 1.0216
1700.5 1.02159
1701 1.02158
1701.5 1.02157
1702 1.02155
1702.5 1.02154
1703 1.02153
1703.5 1.02152
1704 1.0215
1704.5 1.02149
1705 1.02148
1705.5 1.02147
1706 1.02145
1706.5 1.02144
1707 1.02143
1707.5 1.02142
1708 1.0214
1708.5 1.02139
1709 1.02138
1709.5 1.02137
1710 1.02135
1710.5 1.02134
1711 1.02133
1711.5 1.02132
1712 1.02131
1712.5 1.02129
1713 1.02128
1713.5 1.02127
1714 1.02126
1714.5 1.02124
1715 1.02123
1715.5 1.02122
1716 1.02121
1716.5 1.02119
1717 1.02118
1717.5 1.02117
1718 1.02116
1718.5 1.02115
1719 1.02113
1719.5 1.02112
1720 1.02111
1720.5 1.0211
1721 1.02109
1721.5 1.02107
1722 1.02106
1722.5 1.02105
1723 1.02104
1723.5 1.02103
1724 1.02101
1724.5 1.021
1725 1.02099
1725.5 1.02098
1726 1.02097
1726.5 1.02095
1727 1.02094
1727.5 1.02093
1728 1.02092
1728.5 1.02091
1729 1.02089
1729.5 1.02088
1730 1.02087
1730.5 1.02086
1731 1.02085
1731.5 1.02083
1732 1.02082
1732.5 1.02081
1733 1.0208
1733.5 1.02079
1734 1.02077
1734.5 1.02076
1735 1.02075
1735.5 1.02074
1736 1.02073
1736.5 1.02072
1737 1.0207
1737.5 1.02069
1738 1.02068
1738.5 1.02067
1739 1.02066
1739.5 1.02064
1740 1.02063
1740.5 1.02062
1741 1.02061
1741.5 1.0206
1742 1.02059
1742.5 1.02057
1743 1.02056
1743.5 1.02055
1744 1.02054
1744.5 1.02053
1745 1.02052
1745.5 1.0205
1746 1.02049
1746.5 1.02048
1747 1.02047
1747.5 1.02046
1748 1.02045
1748.5 1.02044
1749 1.02042
1749.5 1.02041
1750 1.0204
1750.5 1.02039
1751 1.02038
1751.5 1.02037
1752 1.02035
1752.5 1.02034
1753 1.02033
1753.5 1.02032
1754 1.02031
1754.5 1.0203
1755 1.02029
1755.5 1.02027
1756 1.02026
1756.5 1.02025
1757 1.02024
1757.5 1.02023
1758 1.02022
1758.5 1.02021
1759 1.0202
1759.5 1.02018
1760 1.02017
1760.5 1.02016
1761 1.02015
1761.5 1.02014
1762 1.02013
1762.5 1.02012
1763 1.0201
1763.5 1.02009
1764 1.02008
1764.5 1.02007
1765 1.02006
1765.5 1.02005
1766 1.02004
1766.5 1.02003
1767 1.02001
1767.5 1.02
1768 1.01999
1768.5 1.01998
1769 1.01997
1769.5 1.01996
1770 1.01995
1770.5 1.01994
1771 1.01993
1771.5 1.01991
1772 1.0199
1772.5 1.01989
1773 1.01988
1773.5 1.01987
1774 1.01986
1774.5 1.01985
1775 1.01984
1775.5 1.01983
1776 1.01981
1776.5 1.0198
1777 1.01979
1777.5 1.01978
1778 1.01977
1778.5 1.01976
1779 1.01975
1779.5 1.01974
1780 1.01973
1780.5 1.01972
1781 1.0197
1781.5 1.01969
1782 1.01968
1782.5 1.01967
1783 1.01966
1783.5 1.01965
1784 1.01964
1784.5 1.01963
1785 1.01962
1785.5 1.01961
1786 1.0196
1786.5 1.01959
1787 1.01957
1787.5 1.01956
1788 1.01955
1788.5 1.01954
1789 1.01953
1789.5 1.01952
1790 1.01951
1790.5 1.0195
1791 1.01949
1791.5 1.01948
1792 1.01947
1792.5 1.01946
1793 1.01945
1793.5 1.01943
1794 1.01942
1794.5 1.01941
1795 1.0194
1795.5 1.01939
1796 1.01938
1796.5 1.01937
1797 1.01936
1797.5 1.01935
1798 1.01934
1798.5 1.01933
1799 1.01932
1799.5 1.01931
1800 1.0193
1800.5 1.01929
1801 1.01927
1801.5 1.01926
1802 1.01925
1802.5 1.01924
1803 1.01923
1803.5 1.01922
1804 1.01921
1804.5 1.0192
1805 1.01919
1805.5 1.01918
1806 1.01917
1806.5 1.01916
1807 1.01915
1807.5 1.01914
1808 1.01913
1808.5 1.01912
1809 1.01911
1809.5 1.0191
1810 1.01909
1810.5 1.01908
1811 1.01906
1811.5 1.01905
1812 1.01904
1812.5 1.01903
1813 1.01902
1813.5 1.01901
1814 1.019
1814.5 1.01899
1815 1.01898
1815.5 1.01897
1816 1.01896
1816.5 1.01895
1817 1.01894
1817.5 1.01893
1818 1.01892
1818.5 1.01891
1819 1.0189
1819.5 1.01889
1820 1.01888
1820.5 1.01887
1821 1.01886
1821.5 1.01885
1822 1.01884
1822.5 1.01883
1823 1.01882
1823.5 1.01881
1824 1.0188
1824.5 1.01879
1825 1.01878
1825.5 1.01877
1826 1.01876
1826.5 1.01875
1827 1.01874
1827.5 1.01873
1828 1.01872
1828.5 1.01871
1829 1.0187
1829.5 1.01869
1830 1.01868
1830.5 1.01867
1831 1.01866
1831.5 1.01865
1832 1.01863
1832.5 1.01862
1833 1.01861
1833.5 1.0186
1834 1.01859
1834.5 1.01858
1835 1.01857
1835.5 1.01856
1836 1.01855
1836.5 1.01854
1837 1.01853
1837.5 1.01852
1838 1.01851
1838.5 1.0185
1839 1.01849
1839.5 1.01848
1840 1.01848
1840.5 1.01847
1841 1.01846
1841.5 1.01845
1842 1.01844
1842.5 1.01843
1843 1.01842
1843.5 1.01841
1844 1.0184
1844.5 1.01839
1845 1.01838
1845.5 1.01837
1846 1.01836
1846.5 1.01835
1847 1.01834
1847.5 1.01833
1848 1.01832
1848.5 1.01831
1849 1.0183
1849.5 1.01829
1850 1.01828
1850.5 1.01827
1851 1.01826
1851.5 1.01825
1852 1.01824
1852.5 1.01823
1853 1.01822
1853.5 1.01821
1854 1.0182
1854.5 1.01819
1855 1.01818
1855.5 1.01817
1856 1.01816
1856.5 1.01815
1857 1.01814
1857.5 1.01813
1858 1.01812
1858.5 1.01811
1859 1.0181
1859.5 1.01809
1860 1.01808
1860.5 1.01807
1861 1.01806
1861.5 1.01806
1862 1.01805
1862.5 1.01804
1863 1.01803
1863.5 1.01802
1864 1.01801
1864.5 1.018
1865 1.01799
1865.5 1.01798
1866 1.01797
1866.5 1.01796
1867 1.01795
1867.5 1.01794
1868 1.01793
1868.5 1.01792
1869 1.01791
1869.5 1.0179
1870 1.01789
1870.5 1.01788
1871 1.01787
1871.5 1.01786
1872 1.01786
1872.5 1.01785
1873 1.01784
1873.5 1.01783
1874 1.01782
1874.5 1.01781
1875 1.0178
1875.5 1.01779
1876 1.01778
1876.5 1.01777
1877 1.01776
1877.5 1.01775
1878 1.01774
1878.5 1.01773
1879 1.01772
1879.5 1.01771
1880 1.01771
1880.5 1.0177
1881 1.01769
1881.5 1.01768
1882 1.01767
1882.5 1.01766
1883 1.01765
1883.5 1.01764
1884 1.01763
1884.5 1.01762
1885 1.01761
1885.5 1.0176
1886 1.01759
1886.5 1.01758
1887 1.01758
1887.5 1.01757
1888 1.01756
1888.5 1.01755
1889 1.01754
1889.5 1.01753
1890 1.01752
1890.5 1.01751
1891 1.0175
1891.5 1.01749
1892 1.01748
1892.5 1.01747
1893 1.01747
1893.5 1.01746
1894 1.01745
1894.5 1.01744
1895 1.01743
1895.5 1.01742
1896 1.01741
1896.5 1.0174
1897 1.01739
1897.5 1.01738
1898 1.01737
1898.5 1.01737
1899 1.01736
1899.5 1.01735
1900 1.01734
1900.5 1.01733
1901 1.01732
1901.5 1.01731
1902 1.0173
1902.5 1.01729
1903 1.01728
1903.5 1.01728
1904 1.01727
1904.5 1.01726
1905 1.01725
1905.5 1.01724
1906 1.01723
1906.5 1.01722
1907 1.01721
1907.5 1.0172
1908 1.01719
1908.5 1.01719
1909 1.01718
1909.5 1.01717
1910 1.01716
1910.5 1.01715
1911 1.01714
1911.5 1.01713
1912 1.01712
1912.5 1.01711
1913 1.01711
1913.5 1.0171
1914 1.01709
1914.5 1.01708
1915 1.01707
1915.5 1.01706
1916 1.01705
1916.5 1.01704
1917 1.01704
1917.5 1.01703
1918 1.01702
1918.5 1.01701
1919 1.017
1919.5 1.01699
1920 1.01698
1920.5 1.01697
1921 1.01697
1921.5 1.01696
1922 1.01695
1922.5 1.01694
1923 1.01693
1923.5 1.01692
1924 1.01691
1924.5 1.0169
1925 1.0169
1925.5 1.01689
1926 1.01688
1926.5 1.01687
1927 1.01686
1927.5 1.01685
1928 1.01684
1928.5 1.01683
1929 1.01683
1929.5 1.01682
1930 1.01681
1930.5 1.0168
1931 1.01679
1931.5 1.01678
1932 1.01677
1932.5 1.01677
1933 1.01676
1933.5 1.01675
1934 1.01674
1934.5 1.01673
1935 1.01672
1935.5 1.01671
1936 1.01671
1936.5 1.0167
1937 1.01669
1937.5 1.01668
1938 1.01667
1938.5 1.01666
1939 1.01665
1939.5 1.01665
1940 1.01664
1940.5 1.01663
1941 1.01662
1941.5 1.01661
1942 1.0166
1942.5 1.0166
1943 1.01659
1943.5 1.01658
1944 1.01657
1944.5 1.01656
1945 1.01655
1945.5 1.01654
1946 1.01654
1946.5 1.01653
1947 1.01652
1947.5 1.01651
1948 1.0165
1948.5 1.01649
1949 1.01649
1949.5 1.01648
1950 1.01647
1950.5 1.01646
1951 1.01645
1951.5 1.01644
1952 1.01644
1952.5 1.01643
1953 1.01642
1953.5 1.01641
1954 1.0164
1954.5 1.01639
1955 1.01639
1955.5 1.01638
1956 1.01637
1956.5 1.01636
1957 1.01635
1957.5 1.01634
1958 1.01634
1958.5 1.01633
1959 1.01632
1959.5 1.01631
1960 1.0163
1960.5 1.01629
1961 1.01629
1961.5 1.01628
1962 1.01627
1962.5 1.01626
1963 1.01625
1963.5 1.01625
1964 1.01624
1964.5 1.01623
1965 1.01622
1965.5 1.01621
1966 1.0162
1966.5 1.0162
1967 1.01619
1967.5 1.01618
1968 1.01617
1968.5 1.01616
1969 1.01616
1969.5 1.01615
1970 1.01614
1970.5 1.01613
1971 1.01612
1971.5 1.01612
1972 1.01611
1972.5 1.0161
1973 1.01609
1973.5 1.01608
1974 1.01607
1974.5 1.01607
1975 1.01606
1975.5 1.01605
1976 1.01604
1976.5 1.01603
1977 1.01603
1977.5 1.01602
1978 1.01601
1978.5 1.016
1979 1.01599
1979.5 1.01599
1980 1.01598
1980.5 1.01597
1981 1.01596
1981.5 1.01595
1982 1.01595
1982.5 1.01594
1983 1.01593
1983.5 1.01592
1984 1.01591
1984.5 1.01591
1985 1.0159
1985.5 1.01589
1986 1.01588
1986.5 1.01587
1987 1.01587
1987.5 1.01586
1988 1.01585
1988.5 1.01584
1989 1.01584
1989.5 1.01583
1990 1.01582
1990.5 1.01581
1991 1.0158
1991.5 1.0158
1992 1.01579
1992.5 1.01578
1993 1.01577
1993.5 1.01576
1994 1.01576
1994.5 1.01575
1995 1.01574
1995.5 1.01573
1996 1.01573
1996.5 1.01572
1997 1.01571
1997.5 1.0157
1998 1.01569
1998.5 1.01569
1999 1.01568
1999.5 1.01567
