### FSI tabel with Julich A Potential Triplet (2-Gauss potential) #####
# Weight # krel [MeV] 
2 2.01231
4 1.87446
6 1.87076
8 1.85814
10 1.86632
12 1.85654
14 1.8504
16 1.84606
18 1.83953
20 1.83174
22 1.82367
24 1.81521
26 1.80613
28 1.79642
30 1.7862
32 1.77554
34 1.76448
36 1.75304
38 1.74125
40 1.72915
42 1.71679
44 1.7042
46 1.69141
48 1.67846
50 1.66539
52 1.65222
54 1.63898
56 1.62571
58 1.61243
60 1.59916
62 1.58592
64 1.57275
66 1.55965
68 1.54666
70 1.53377
72 1.52101
74 1.5084
76 1.49594
78 1.48365
80 1.47154
82 1.45961
84 1.44788
86 1.43634
88 1.42501
90 1.41389
92 1.40299
94 1.3923
96 1.38183
98 1.37158
100 1.36155
102 1.35175
104 1.34217
106 1.33281
108 1.32367
110 1.31475
112 1.30605
114 1.29757
116 1.2893
118 1.28125
120 1.2734
122 1.26576
124 1.25832
126 1.25108
128 1.24403
130 1.23718
132 1.23052
134 1.22405
136 1.21775
138 1.21164
140 1.2057
142 1.19993
144 1.19433
146 1.18889
148 1.18361
150 1.17849
152 1.17352
154 1.1687
156 1.16402
158 1.15949
160 1.15509
162 1.15083
164 1.14669
166 1.14269
168 1.1388
170 1.13504
172 1.13139
174 1.12786
176 1.12444
178 1.12113
180 1.11792
182 1.11481
184 1.1118
186 1.10889
188 1.10607
190 1.10334
192 1.10069
194 1.09813
196 1.09566
198 1.09326
200 1.09094
202 1.0887
204 1.08653
206 1.08442
208 1.08239
210 1.08042
212 1.07852
214 1.07668
216 1.0749
218 1.07317
220 1.0715
222 1.06989
224 1.06833
226 1.06682
228 1.06535
230 1.06394
232 1.06257
234 1.06124
236 1.05996
238 1.05872
240 1.05752
242 1.05636
244 1.05523
246 1.05414
248 1.05308
250 1.05206
252 1.05107
254 1.05011
256 1.04918
258 1.04828
260 1.04741
262 1.04656
264 1.04574
266 1.04495
268 1.04418
270 1.04343
272 1.0427
274 1.042
276 1.04131
278 1.04065
280 1.04
282 1.03938
284 1.03877
286 1.03817
288 1.0376
290 1.03704
292 1.03649
294 1.03596
296 1.03544
298 1.03494
300 1.03445
302 1.03397
304 1.0335
306 1.03304
308 1.0326
310 1.03217
312 1.03174
314 1.03133
316 1.03092
318 1.03053
320 1.03014
322 1.02976
324 1.02939
326 1.02903
328 1.02867
330 1.02832
332 1.02798
334 1.02764
336 1.02731
338 1.02699
340 1.02667
342 1.02636
344 1.02605
346 1.02575
348 1.02545
350 1.02516
352 1.02487
354 1.02459
356 1.02431
358 1.02404
360 1.02377
362 1.0235
364 1.02324
366 1.02298
368 1.02272
370 1.02247
372 1.02222
374 1.02197
376 1.02173
378 1.02149
380 1.02125
382 1.02102
384 1.02078
386 1.02056
388 1.02033
390 1.0201
392 1.01988
394 1.01966
396 1.01945
398 1.01923
400 1.01902
402 1.01881
404 1.0186
406 1.0184
408 1.01819
410 1.01799
412 1.01779
414 1.01759
416 1.0174
418 1.0172
420 1.01701
422 1.01682
424 1.01663
426 1.01644
428 1.01626
430 1.01608
432 1.0159
434 1.01572
436 1.01554
438 1.01536
440 1.01519
442 1.01501
444 1.01484
446 1.01467
448 1.01451
450 1.01434
452 1.01417
454 1.01401
456 1.01385
458 1.01369
460 1.01353
462 1.01338
464 1.01322
466 1.01307
468 1.01291
470 1.01276
472 1.01261
474 1.01247
476 1.01232
478 1.01218
480 1.01203
482 1.01189
484 1.01175
486 1.01161
488 1.01148
490 1.01134
492 1.01121
494 1.01107
496 1.01094
498 1.01081
500 1.01068
502 1.01056
504 1.01043
506 1.01031
508 1.01018
510 1.01006
512 1.00994
514 1.00982
516 1.00971
518 1.00959
520 1.00948
522 1.00936
524 1.00925
526 1.00914
528 1.00903
530 1.00892
532 1.00881
534 1.00871
536 1.0086
538 1.0085
540 1.0084
542 1.0083
544 1.0082
546 1.0081
548 1.008
550 1.00791
552 1.00781
554 1.00772
556 1.00763
558 1.00754
560 1.00745
562 1.00736
564 1.00727
566 1.00718
568 1.0071
570 1.00701
572 1.00693
574 1.00684
576 1.00676
578 1.00668
580 1.0066
582 1.00652
584 1.00645
586 1.00637
588 1.00629
590 1.00622
592 1.00615
594 1.00607
596 1.006
598 1.00593
600 1.00586
602 1.00579
604 1.00572
606 1.00566
608 1.00559
610 1.00552
612 1.00546
614 1.0054
616 1.00533
618 1.00527
620 1.00521
622 1.00515
624 1.00509
626 1.00503
628 1.00497
630 1.00491
632 1.00486
634 1.0048
636 1.00475
638 1.00469
640 1.00464
642 1.00458
644 1.00453
646 1.00448
648 1.00443
650 1.00438
652 1.00433
654 1.00428
656 1.00423
658 1.00418
660 1.00414
662 1.00409
664 1.00404
666 1.004
668 1.00395
670 1.00391
672 1.00387
674 1.00382
676 1.00378
678 1.00374
680 1.0037
682 1.00366
684 1.00361
686 1.00358
688 1.00354
690 1.0035
692 1.00346
694 1.00342
696 1.00338
698 1.00335
700 1.00331
702 1.00327
704 1.00324
706 1.0032
708 1.00317
710 1.00314
712 1.0031
714 1.00307
716 1.00304
718 1.003
720 1.00297
722 1.00294
724 1.00291
726 1.00288
728 1.00285
730 1.00282
732 1.00279
734 1.00276
736 1.00273
738 1.0027
740 1.00267
742 1.00264
744 1.00262
746 1.00259
748 1.00256
750 1.00254
752 1.00251
754 1.00248
756 1.00246
758 1.00243
760 1.00241
762 1.00238
764 1.00236
766 1.00234
768 1.00231
770 1.00229
772 1.00227
774 1.00224
776 1.00222
778 1.0022
780 1.00218
782 1.00215
784 1.00213
786 1.00211
788 1.00209
790 1.00207
792 1.00205
794 1.00203
796 1.00201
798 1.00199
800 1.00197
802 1.00195
804 1.00193
806 1.00191
808 1.0019
810 1.00188
812 1.00186
814 1.00184
816 1.00182
818 1.00181
820 1.00179
822 1.00177
824 1.00175
826 1.00174
828 1.00172
830 1.0017
832 1.00169
834 1.00167
836 1.00166
838 1.00164
840 1.00163
842 1.00161
844 1.0016
846 1.00158
848 1.00157
850 1.00155
852 1.00154
854 1.00152
856 1.00151
858 1.0015
860 1.00148
862 1.00147
864 1.00145
866 1.00144
868 1.00143
870 1.00142
872 1.0014
874 1.00139
876 1.00138
878 1.00136
880 1.00135
882 1.00134
884 1.00133
886 1.00132
888 1.0013
890 1.00129
892 1.00128
894 1.00127
896 1.00126
898 1.00125
900 1.00124
902 1.00123
904 1.00122
906 1.0012
908 1.00119
910 1.00118
912 1.00117
914 1.00116
916 1.00115
918 1.00114
920 1.00113
922 1.00112
924 1.00111
926 1.0011
928 1.0011
930 1.00109
932 1.00108
934 1.00107
936 1.00106
938 1.00105
940 1.00104
942 1.00103
944 1.00102
946 1.00101
948 1.00101
950 1.001
952 1.00099
954 1.00098
956 1.00097
958 1.00097
960 1.00096
962 1.00095
964 1.00094
966 1.00093
968 1.00093
970 1.00092
972 1.00091
974 1.0009
976 1.0009
978 1.00089
980 1.00088
982 1.00087
984 1.00087
986 1.00086
988 1.00085
990 1.00085
992 1.00084
994 1.00083
996 1.00083
998 1.00082
1000 1.00081
1002 1.00081
1004 1.0008
1006 1.00079
1008 1.00079
1010 1.00078
1012 1.00078
1014 1.00077
1016 1.00076
1018 1.00076
1020 1.00075
1022 1.00075
1024 1.00074
1026 1.00073
1028 1.00073
1030 1.00072
1032 1.00072
1034 1.00071
1036 1.00071
1038 1.0007
1040 1.0007
1042 1.00069
1044 1.00069
1046 1.00068
1048 1.00067
1050 1.00067
1052 1.00066
1054 1.00066
1056 1.00065
1058 1.00065
1060 1.00064
1062 1.00064
1064 1.00064
1066 1.00063
1068 1.00063
1070 1.00062
1072 1.00062
1074 1.00061
1076 1.00061
1078 1.0006
1080 1.0006
1082 1.00059
1084 1.00059
1086 1.00059
1088 1.00058
1090 1.00058
1092 1.00057
1094 1.00057
1096 1.00056
1098 1.00056
1100 1.00056
1102 1.00055
1104 1.00055
1106 1.00054
1108 1.00054
1110 1.00054
1112 1.00053
1114 1.00053
1116 1.00053
1118 1.00052
1120 1.00052
1122 1.00051
1124 1.00051
1126 1.00051
1128 1.0005
1130 1.0005
1132 1.0005
1134 1.00049
1136 1.00049
1138 1.00049
1140 1.00048
1142 1.00048
1144 1.00048
1146 1.00047
1148 1.00047
1150 1.00047
1152 1.00046
1154 1.00046
1156 1.00046
1158 1.00045
1160 1.00045
1162 1.00045
1164 1.00044
1166 1.00044
1168 1.00044
1170 1.00044
1172 1.00043
1174 1.00043
1176 1.00043
1178 1.00042
1180 1.00042
1182 1.00042
1184 1.00041
1186 1.00041
1188 1.00041
1190 1.00041
1192 1.0004
1194 1.0004
1196 1.0004
1198 1.0004
1200 1.00039
1202 1.00039
1204 1.00039
1206 1.00039
1208 1.00038
1210 1.00038
1212 1.00038
1214 1.00038
1216 1.00037
1218 1.00037
1220 1.00037
1222 1.00037
1224 1.00036
1226 1.00036
1228 1.00036
1230 1.00036
1232 1.00035
1234 1.00035
1236 1.00035
1238 1.00035
1240 1.00035
1242 1.00034
1244 1.00034
1246 1.00034
1248 1.00034
1250 1.00033
1252 1.00033
1254 1.00033
1256 1.00033
1258 1.00033
1260 1.00032
1262 1.00032
1264 1.00032
1266 1.00032
1268 1.00032
1270 1.00031
1272 1.00031
1274 1.00031
1276 1.00031
1278 1.00031
1280 1.0003
1282 1.0003
1284 1.0003
1286 1.0003
1288 1.0003
1290 1.00029
1292 1.00029
1294 1.00029
1296 1.00029
1298 1.00029
1300 1.00029
1302 1.00028
1304 1.00028
1306 1.00028
1308 1.00028
1310 1.00028
1312 1.00028
1314 1.00027
1316 1.00027
1318 1.00027
1320 1.00027
1322 1.00027
1324 1.00027
1326 1.00026
1328 1.00026
1330 1.00026
1332 1.00026
1334 1.00026
1336 1.00026
1338 1.00025
1340 1.00025
1342 1.00025
1344 1.00025
1346 1.00025
1348 1.00025
1350 1.00025
1352 1.00024
1354 1.00024
1356 1.00024
1358 1.00024
1360 1.00024
1362 1.00024
1364 1.00024
1366 1.00023
1368 1.00023
1370 1.00023
1372 1.00023
1374 1.00023
1376 1.00023
1378 1.00023
1380 1.00023
1382 1.00022
1384 1.00022
1386 1.00022
1388 1.00022
1390 1.00022
1392 1.00022
1394 1.00022
1396 1.00022
1398 1.00021
1400 1.00021
1402 1.00021
1404 1.00021
1406 1.00021
1408 1.00021
1410 1.00021
1412 1.00021
1414 1.0002
1416 1.0002
1418 1.0002
1420 1.0002
1422 1.0002
1424 1.0002
1426 1.0002
1428 1.0002
1430 1.0002
1432 1.00019
1434 1.00019
1436 1.00019
1438 1.00019
1440 1.00019
1442 1.00019
1444 1.00019
1446 1.00019
1448 1.00019
1450 1.00018
1452 1.00018
1454 1.00018
1456 1.00018
1458 1.00018
1460 1.00018
1462 1.00018
1464 1.00018
1466 1.00018
1468 1.00018
1470 1.00017
1472 1.00017
1474 1.00017
1476 1.00017
1478 1.00017
1480 1.00017
1482 1.00017
1484 1.00017
1486 1.00017
1488 1.00017
1490 1.00017
1492 1.00016
1494 1.00016
1496 1.00016
1498 1.00016
1500 1.00016
1502 1.00016
1504 1.00016
1506 1.00016
1508 1.00016
1510 1.00016
1512 1.00016
1514 1.00016
1516 1.00015
1518 1.00015
1520 1.00015
1522 1.00015
1524 1.00015
1526 1.00015
1528 1.00015
1530 1.00015
1532 1.00015
1534 1.00015
1536 1.00015
1538 1.00015
1540 1.00015
1542 1.00014
1544 1.00014
1546 1.00014
1548 1.00014
1550 1.00014
1552 1.00014
1554 1.00014
1556 1.00014
1558 1.00014
1560 1.00014
1562 1.00014
1564 1.00014
1566 1.00014
1568 1.00014
1570 1.00013
1572 1.00013
1574 1.00013
1576 1.00013
1578 1.00013
1580 1.00013
1582 1.00013
1584 1.00013
1586 1.00013
1588 1.00013
1590 1.00013
1592 1.00013
1594 1.00013
1596 1.00013
1598 1.00013
1600 1.00012
1602 1.00012
1604 1.00012
1606 1.00012
1608 1.00012
1610 1.00012
1612 1.00012
1614 1.00012
1616 1.00012
1618 1.00012
1620 1.00012
1622 1.00012
1624 1.00012
1626 1.00012
1628 1.00012
1630 1.00012
1632 1.00012
1634 1.00011
1636 1.00011
1638 1.00011
1640 1.00011
1642 1.00011
1644 1.00011
1646 1.00011
1648 1.00011
1650 1.00011
1652 1.00011
1654 1.00011
1656 1.00011
1658 1.00011
1660 1.00011
1662 1.00011
1664 1.00011
1666 1.00011
1668 1.00011
1670 1.00011
1672 1.0001
1674 1.0001
1676 1.0001
1678 1.0001
1680 1.0001
1682 1.0001
1684 1.0001
1686 1.0001
1688 1.0001
1690 1.0001
1692 1.0001
1694 1.0001
1696 1.0001
1698 1.0001
1700 1.0001
1702 1.0001
1704 1.0001
1706 1.0001
1708 1.0001
1710 1.0001
1712 1.0001
1714 1.00009
1716 1.00009
1718 1.00009
1720 1.00009
1722 1.00009
1724 1.00009
1726 1.00009
1728 1.00009
1730 1.00009
1732 1.00009
1734 1.00009
1736 1.00009
1738 1.00009
1740 1.00009
1742 1.00009
1744 1.00009
1746 1.00009
1748 1.00009
1750 1.00009
1752 1.00009
1754 1.00009
1756 1.00009
1758 1.00009
1760 1.00009
1762 1.00008
1764 1.00008
1766 1.00008
1768 1.00008
1770 1.00008
1772 1.00008
1774 1.00008
1776 1.00008
1778 1.00008
1780 1.00008
1782 1.00008
1784 1.00008
1786 1.00008
1788 1.00008
1790 1.00008
1792 1.00008
1794 1.00008
1796 1.00008
1798 1.00008
1800 1.00008
1802 1.00008
1804 1.00008
1806 1.00008
1808 1.00008
1810 1.00008
1812 1.00008
1814 1.00008
1816 1.00008
1818 1.00007
1820 1.00007
1822 1.00007
1824 1.00007
1826 1.00007
1828 1.00007
1830 1.00007
1832 1.00007
1834 1.00007
1836 1.00007
1838 1.00007
1840 1.00007
1842 1.00007
1844 1.00007
1846 1.00007
1848 1.00007
1850 1.00007
1852 1.00007
1854 1.00007
1856 1.00007
1858 1.00007
1860 1.00007
1862 1.00007
1864 1.00007
1866 1.00007
1868 1.00007
1870 1.00007
1872 1.00007
1874 1.00007
1876 1.00007
1878 1.00007
1880 1.00007
1882 1.00007
1884 1.00006
1886 1.00006
1888 1.00006
1890 1.00006
1892 1.00006
1894 1.00006
1896 1.00006
1898 1.00006
1900 1.00006
1902 1.00006
1904 1.00006
1906 1.00006
1908 1.00006
1910 1.00006
1912 1.00006
1914 1.00006
1916 1.00006
1918 1.00006
1920 1.00006
1922 1.00006
1924 1.00006
1926 1.00006
1928 1.00006
1930 1.00006
1932 1.00006
1934 1.00006
1936 1.00006
1938 1.00006
1940 1.00006
1942 1.00006
1944 1.00006
1946 1.00006
1948 1.00006
1950 1.00006
1952 1.00006
1954 1.00006
1956 1.00006
1958 1.00006
1960 1.00006
1962 1.00006
1964 1.00006
1966 1.00005
1968 1.00005
1970 1.00005
1972 1.00005
1974 1.00005
1976 1.00005
1978 1.00005
1980 1.00005
1982 1.00005
1984 1.00005
1986 1.00005
1988 1.00005
1990 1.00005
1992 1.00005
1994 1.00005
1996 1.00005
1998 1.00005
