### FSI tabel with Julich A Potential (2-Gauss potential) #####
# Weight # krel [MeV] 
2 3.91296
4 3.57716
6 3.55946
8 3.52195
10 3.53923
12 3.51854
14 3.49806
16 3.48282
18 3.4647
20 3.44262
22 3.41848
24 3.39313
26 3.36641
28 3.3381
30 3.30828
32 3.27713
34 3.24483
36 3.21154
38 3.17734
40 3.14236
42 3.10668
44 3.07044
46 3.03373
48 2.99667
50 2.95934
52 2.92185
54 2.88427
56 2.84669
58 2.80918
60 2.77181
62 2.73465
64 2.69775
66 2.66116
68 2.62494
70 2.58912
72 2.55374
74 2.51885
76 2.48446
78 2.4506
80 2.41729
82 2.38456
84 2.35241
86 2.32087
88 2.28993
90 2.25961
92 2.22991
94 2.20083
96 2.17238
98 2.14455
100 2.11733
102 2.09074
104 2.06476
106 2.03938
108 2.01461
110 1.99042
112 1.96682
114 1.94379
116 1.92132
118 1.89941
120 1.87804
122 1.85721
124 1.8369
126 1.8171
128 1.7978
130 1.77899
132 1.76066
134 1.7428
136 1.72539
138 1.70843
140 1.6919
142 1.67579
144 1.6601
146 1.64481
148 1.62991
150 1.6154
152 1.60125
154 1.58747
156 1.57404
158 1.56095
160 1.54819
162 1.53577
164 1.52365
166 1.51184
168 1.50034
170 1.48912
172 1.47819
174 1.46753
176 1.45714
178 1.447
180 1.43713
182 1.42749
184 1.4181
186 1.40894
188 1.40001
190 1.39129
192 1.38279
194 1.3745
196 1.36641
198 1.35852
200 1.35082
202 1.34331
204 1.33598
206 1.32882
208 1.32184
210 1.31502
212 1.30837
214 1.30187
216 1.29553
218 1.28934
220 1.2833
222 1.27739
224 1.27163
226 1.266
228 1.2605
230 1.25513
232 1.24988
234 1.24476
236 1.23975
238 1.23486
240 1.23008
242 1.22541
244 1.22084
246 1.21638
248 1.21202
250 1.20776
252 1.20359
254 1.19952
256 1.19554
258 1.19165
260 1.18784
262 1.18412
264 1.18048
266 1.17693
268 1.17345
270 1.17004
272 1.16671
274 1.16346
276 1.16028
278 1.15716
280 1.15411
282 1.15113
284 1.14821
286 1.14536
288 1.14257
290 1.13983
292 1.13716
294 1.13454
296 1.13198
298 1.12948
300 1.12702
302 1.12462
304 1.12227
306 1.11997
308 1.11772
310 1.11551
312 1.11335
314 1.11124
316 1.10917
318 1.10714
320 1.10515
322 1.10321
324 1.10131
326 1.09944
328 1.09762
330 1.09583
332 1.09408
334 1.09236
336 1.09068
338 1.08904
340 1.08743
342 1.08585
344 1.0843
346 1.08278
348 1.0813
350 1.07984
352 1.07842
354 1.07702
356 1.07565
358 1.07431
360 1.07299
362 1.07171
364 1.07044
366 1.06921
368 1.06799
370 1.0668
372 1.06564
374 1.0645
376 1.06338
378 1.06228
380 1.06121
382 1.06015
384 1.05912
386 1.0581
388 1.05711
390 1.05613
392 1.05518
394 1.05424
396 1.05332
398 1.05242
400 1.05154
402 1.05067
404 1.04982
406 1.04899
408 1.04817
410 1.04737
412 1.04659
414 1.04582
416 1.04506
418 1.04432
420 1.04359
422 1.04288
424 1.04218
426 1.04149
428 1.04082
430 1.04016
432 1.03951
434 1.03887
436 1.03825
438 1.03763
440 1.03703
442 1.03644
444 1.03586
446 1.03529
448 1.03474
450 1.03419
452 1.03365
454 1.03312
456 1.03261
458 1.0321
460 1.0316
462 1.03111
464 1.03063
466 1.03016
468 1.0297
470 1.02924
472 1.02879
474 1.02836
476 1.02793
478 1.0275
480 1.02709
482 1.02668
484 1.02628
486 1.02589
488 1.0255
490 1.02512
492 1.02475
494 1.02438
496 1.02402
498 1.02367
500 1.02332
502 1.02298
504 1.02265
506 1.02232
508 1.022
510 1.02168
512 1.02137
514 1.02106
516 1.02076
518 1.02047
520 1.02017
522 1.01989
524 1.01961
526 1.01933
528 1.01906
530 1.01879
532 1.01853
534 1.01827
536 1.01802
538 1.01777
540 1.01753
542 1.01729
544 1.01705
546 1.01682
548 1.01659
550 1.01636
552 1.01614
554 1.01593
556 1.01571
558 1.0155
560 1.01529
562 1.01509
564 1.01489
566 1.01469
568 1.0145
570 1.01431
572 1.01412
574 1.01394
576 1.01376
578 1.01358
580 1.0134
582 1.01323
584 1.01306
586 1.01289
588 1.01273
590 1.01256
592 1.0124
594 1.01225
596 1.01209
598 1.01194
600 1.01179
602 1.01164
604 1.0115
606 1.01136
608 1.01121
610 1.01108
612 1.01094
614 1.01081
616 1.01067
618 1.01054
620 1.01041
622 1.01029
624 1.01016
626 1.01004
628 1.00992
630 1.0098
632 1.00968
634 1.00957
636 1.00945
638 1.00934
640 1.00923
642 1.00912
644 1.00902
646 1.00891
648 1.00881
650 1.0087
652 1.0086
654 1.0085
656 1.00841
658 1.00831
660 1.00821
662 1.00812
664 1.00803
666 1.00794
668 1.00785
670 1.00776
672 1.00767
674 1.00758
676 1.0075
678 1.00741
680 1.00733
682 1.00725
684 1.00717
686 1.00709
688 1.00701
690 1.00694
692 1.00686
694 1.00678
696 1.00671
698 1.00664
700 1.00657
702 1.00649
704 1.00642
706 1.00636
708 1.00629
710 1.00622
712 1.00615
714 1.00609
716 1.00602
718 1.00596
720 1.0059
722 1.00583
724 1.00577
726 1.00571
728 1.00565
730 1.00559
732 1.00554
734 1.00548
736 1.00542
738 1.00537
740 1.00531
742 1.00526
744 1.0052
746 1.00515
748 1.0051
750 1.00505
752 1.00499
754 1.00494
756 1.00489
758 1.00485
760 1.0048
762 1.00475
764 1.0047
766 1.00465
768 1.00461
770 1.00456
772 1.00452
774 1.00447
776 1.00443
778 1.00439
780 1.00434
782 1.0043
784 1.00426
786 1.00422
788 1.00418
790 1.00414
792 1.0041
794 1.00406
796 1.00402
798 1.00398
800 1.00394
802 1.0039
804 1.00387
806 1.00383
808 1.00379
810 1.00376
812 1.00372
814 1.00369
816 1.00365
818 1.00362
820 1.00359
822 1.00355
824 1.00352
826 1.00349
828 1.00345
830 1.00342
832 1.00339
834 1.00336
836 1.00333
838 1.0033
840 1.00327
842 1.00324
844 1.00321
846 1.00318
848 1.00315
850 1.00312
852 1.00309
854 1.00307
856 1.00304
858 1.00301
860 1.00299
862 1.00296
864 1.00293
866 1.00291
868 1.00288
870 1.00286
872 1.00283
874 1.00281
876 1.00278
878 1.00276
880 1.00273
882 1.00271
884 1.00268
886 1.00266
888 1.00264
890 1.00262
892 1.00259
894 1.00257
896 1.00255
898 1.00253
900 1.00251
902 1.00248
904 1.00246
906 1.00244
908 1.00242
910 1.0024
912 1.00238
914 1.00236
916 1.00234
918 1.00232
920 1.0023
922 1.00228
924 1.00226
926 1.00224
928 1.00223
930 1.00221
932 1.00219
934 1.00217
936 1.00215
938 1.00214
940 1.00212
942 1.0021
944 1.00208
946 1.00207
948 1.00205
950 1.00203
952 1.00202
954 1.002
956 1.00198
958 1.00197
960 1.00195
962 1.00194
964 1.00192
966 1.00191
968 1.00189
970 1.00188
972 1.00186
974 1.00185
976 1.00183
978 1.00182
980 1.0018
982 1.00179
984 1.00177
986 1.00176
988 1.00175
990 1.00173
992 1.00172
994 1.00171
996 1.00169
998 1.00168
1000 1.00167
1002 1.00165
1004 1.00164
1006 1.00163
1008 1.00162
1010 1.0016
1012 1.00159
1014 1.00158
1016 1.00157
1018 1.00155
1020 1.00154
1022 1.00153
1024 1.00152
1026 1.00151
1028 1.0015
1030 1.00149
1032 1.00147
1034 1.00146
1036 1.00145
1038 1.00144
1040 1.00143
1042 1.00142
1044 1.00141
1046 1.0014
1048 1.00139
1050 1.00138
1052 1.00137
1054 1.00136
1056 1.00135
1058 1.00134
1060 1.00133
1062 1.00132
1064 1.00131
1066 1.0013
1068 1.00129
1070 1.00128
1072 1.00127
1074 1.00126
1076 1.00125
1078 1.00124
1080 1.00123
1082 1.00123
1084 1.00122
1086 1.00121
1088 1.0012
1090 1.00119
1092 1.00118
1094 1.00117
1096 1.00117
1098 1.00116
1100 1.00115
1102 1.00114
1104 1.00113
1106 1.00113
1108 1.00112
1110 1.00111
1112 1.0011
1114 1.00109
1116 1.00109
1118 1.00108
1120 1.00107
1122 1.00106
1124 1.00106
1126 1.00105
1128 1.00104
1130 1.00103
1132 1.00103
1134 1.00102
1136 1.00101
1138 1.00101
1140 1.001
1142 1.00099
1144 1.00099
1146 1.00098
1148 1.00097
1150 1.00097
1152 1.00096
1154 1.00095
1156 1.00095
1158 1.00094
1160 1.00093
1162 1.00093
1164 1.00092
1166 1.00092
1168 1.00091
1170 1.0009
1172 1.0009
1174 1.00089
1176 1.00089
1178 1.00088
1180 1.00087
1182 1.00087
1184 1.00086
1186 1.00086
1188 1.00085
1190 1.00085
1192 1.00084
1194 1.00083
1196 1.00083
1198 1.00082
1200 1.00082
1202 1.00081
1204 1.00081
1206 1.0008
1208 1.0008
1210 1.00079
1212 1.00079
1214 1.00078
1216 1.00078
1218 1.00077
1220 1.00077
1222 1.00076
1224 1.00076
1226 1.00075
1228 1.00075
1230 1.00074
1232 1.00074
1234 1.00073
1236 1.00073
1238 1.00072
1240 1.00072
1242 1.00071
1244 1.00071
1246 1.00071
1248 1.0007
1250 1.0007
1252 1.00069
1254 1.00069
1256 1.00068
1258 1.00068
1260 1.00068
1262 1.00067
1264 1.00067
1266 1.00066
1268 1.00066
1270 1.00065
1272 1.00065
1274 1.00065
1276 1.00064
1278 1.00064
1280 1.00064
1282 1.00063
1284 1.00063
1286 1.00062
1288 1.00062
1290 1.00062
1292 1.00061
1294 1.00061
1296 1.0006
1298 1.0006
1300 1.0006
1302 1.00059
1304 1.00059
1306 1.00059
1308 1.00058
1310 1.00058
1312 1.00058
1314 1.00057
1316 1.00057
1318 1.00057
1320 1.00056
1322 1.00056
1324 1.00056
1326 1.00055
1328 1.00055
1330 1.00055
1332 1.00054
1334 1.00054
1336 1.00054
1338 1.00053
1340 1.00053
1342 1.00053
1344 1.00052
1346 1.00052
1348 1.00052
1350 1.00052
1352 1.00051
1354 1.00051
1356 1.00051
1358 1.0005
1360 1.0005
1362 1.0005
1364 1.00049
1366 1.00049
1368 1.00049
1370 1.00049
1372 1.00048
1374 1.00048
1376 1.00048
1378 1.00048
1380 1.00047
1382 1.00047
1384 1.00047
1386 1.00046
1388 1.00046
1390 1.00046
1392 1.00046
1394 1.00045
1396 1.00045
1398 1.00045
1400 1.00045
1402 1.00044
1404 1.00044
1406 1.00044
1408 1.00044
1410 1.00043
1412 1.00043
1414 1.00043
1416 1.00043
1418 1.00042
1420 1.00042
1422 1.00042
1424 1.00042
1426 1.00042
1428 1.00041
1430 1.00041
1432 1.00041
1434 1.00041
1436 1.0004
1438 1.0004
1440 1.0004
1442 1.0004
1444 1.0004
1446 1.00039
1448 1.00039
1450 1.00039
1452 1.00039
1454 1.00038
1456 1.00038
1458 1.00038
1460 1.00038
1462 1.00038
1464 1.00037
1466 1.00037
1468 1.00037
1470 1.00037
1472 1.00037
1474 1.00036
1476 1.00036
1478 1.00036
1480 1.00036
1482 1.00036
1484 1.00035
1486 1.00035
1488 1.00035
1490 1.00035
1492 1.00035
1494 1.00035
1496 1.00034
1498 1.00034
1500 1.00034
1502 1.00034
1504 1.00034
1506 1.00033
1508 1.00033
1510 1.00033
1512 1.00033
1514 1.00033
1516 1.00033
1518 1.00032
1520 1.00032
1522 1.00032
1524 1.00032
1526 1.00032
1528 1.00032
1530 1.00031
1532 1.00031
1534 1.00031
1536 1.00031
1538 1.00031
1540 1.00031
1542 1.0003
1544 1.0003
1546 1.0003
1548 1.0003
1550 1.0003
1552 1.0003
1554 1.0003
1556 1.00029
1558 1.00029
1560 1.00029
1562 1.00029
1564 1.00029
1566 1.00029
1568 1.00029
1570 1.00028
1572 1.00028
1574 1.00028
1576 1.00028
1578 1.00028
1580 1.00028
1582 1.00028
1584 1.00027
1586 1.00027
1588 1.00027
1590 1.00027
1592 1.00027
1594 1.00027
1596 1.00027
1598 1.00026
1600 1.00026
1602 1.00026
1604 1.00026
1606 1.00026
1608 1.00026
1610 1.00026
1612 1.00026
1614 1.00025
1616 1.00025
1618 1.00025
1620 1.00025
1622 1.00025
1624 1.00025
1626 1.00025
1628 1.00025
1630 1.00024
1632 1.00024
1634 1.00024
1636 1.00024
1638 1.00024
1640 1.00024
1642 1.00024
1644 1.00024
1646 1.00024
1648 1.00023
1650 1.00023
1652 1.00023
1654 1.00023
1656 1.00023
1658 1.00023
1660 1.00023
1662 1.00023
1664 1.00023
1666 1.00022
1668 1.00022
1670 1.00022
1672 1.00022
1674 1.00022
1676 1.00022
1678 1.00022
1680 1.00022
1682 1.00022
1684 1.00022
1686 1.00021
1688 1.00021
1690 1.00021
1692 1.00021
1694 1.00021
1696 1.00021
1698 1.00021
1700 1.00021
1702 1.00021
1704 1.00021
1706 1.0002
1708 1.0002
1710 1.0002
1712 1.0002
1714 1.0002
1716 1.0002
1718 1.0002
1720 1.0002
1722 1.0002
1724 1.0002
1726 1.0002
1728 1.00019
1730 1.00019
1732 1.00019
1734 1.00019
1736 1.00019
1738 1.00019
1740 1.00019
1742 1.00019
1744 1.00019
1746 1.00019
1748 1.00019
1750 1.00018
1752 1.00018
1754 1.00018
1756 1.00018
1758 1.00018
1760 1.00018
1762 1.00018
1764 1.00018
1766 1.00018
1768 1.00018
1770 1.00018
1772 1.00018
1774 1.00018
1776 1.00017
1778 1.00017
1780 1.00017
1782 1.00017
1784 1.00017
1786 1.00017
1788 1.00017
1790 1.00017
1792 1.00017
1794 1.00017
1796 1.00017
1798 1.00017
1800 1.00017
1802 1.00016
1804 1.00016
1806 1.00016
1808 1.00016
1810 1.00016
1812 1.00016
1814 1.00016
1816 1.00016
1818 1.00016
1820 1.00016
1822 1.00016
1824 1.00016
1826 1.00016
1828 1.00016
1830 1.00015
1832 1.00015
1834 1.00015
1836 1.00015
1838 1.00015
1840 1.00015
1842 1.00015
1844 1.00015
1846 1.00015
1848 1.00015
1850 1.00015
1852 1.00015
1854 1.00015
1856 1.00015
1858 1.00015
1860 1.00015
1862 1.00014
1864 1.00014
1866 1.00014
1868 1.00014
1870 1.00014
1872 1.00014
1874 1.00014
1876 1.00014
1878 1.00014
1880 1.00014
1882 1.00014
1884 1.00014
1886 1.00014
1888 1.00014
1890 1.00014
1892 1.00014
1894 1.00014
1896 1.00013
1898 1.00013
1900 1.00013
1902 1.00013
1904 1.00013
1906 1.00013
1908 1.00013
1910 1.00013
1912 1.00013
1914 1.00013
1916 1.00013
1918 1.00013
1920 1.00013
1922 1.00013
1924 1.00013
1926 1.00013
1928 1.00013
1930 1.00013
1932 1.00012
1934 1.00012
1936 1.00012
1938 1.00012
1940 1.00012
1942 1.00012
1944 1.00012
1946 1.00012
1948 1.00012
1950 1.00012
1952 1.00012
1954 1.00012
1956 1.00012
1958 1.00012
1960 1.00012
1962 1.00012
1964 1.00012
1966 1.00012
1968 1.00012
1970 1.00012
1972 1.00012
1974 1.00011
1976 1.00011
1978 1.00011
1980 1.00011
1982 1.00011
1984 1.00011
1986 1.00011
1988 1.00011
1990 1.00011
1992 1.00011
1994 1.00011
1996 1.00011
1998 1.00011
