 Gamma + d --> K + Y + N ( LAB FRAME )
  Final State Interaction : NSC97f
  operator with D_13 resonance
  JMAX=   1

*** INCLUSIVE CROSS SECTION ***
    PHOTON ENERGY [MEV] :   0.1300000E+04
    KAON ANGLE [DEG] :   0.1000000E+01

 PK, LN, S(0)N, S(-)P,TOTAL  [nb/(MeV/c Sr)]
    979.00    0.0000000E+00  0.0000000E+00  0.0000000E+00  0.0000000E+00
    978.00    0.3219250E+01  0.0000000E+00  0.0000000E+00  0.3219250E+01
    977.00    0.5003256E+01  0.0000000E+00  0.0000000E+00  0.5003256E+01
    976.00    0.5958918E+01  0.0000000E+00  0.0000000E+00  0.5958918E+01
    973.00    0.7755571E+01  0.0000000E+00  0.0000000E+00  0.7755571E+01
    970.00    0.9408858E+01  0.0000000E+00  0.0000000E+00  0.9408858E+01
    967.00    0.1135085E+02  0.0000000E+00  0.0000000E+00  0.1135085E+02
    964.00    0.1365046E+02  0.0000000E+00  0.0000000E+00  0.1365046E+02
    961.00    0.1624496E+02  0.0000000E+00  0.0000000E+00  0.1624496E+02
    958.00    0.1896229E+02  0.0000000E+00  0.0000000E+00  0.1896229E+02
    955.00    0.2152845E+02  0.0000000E+00  0.0000000E+00  0.2152845E+02
    953.00    0.2299015E+02  0.0000000E+00  0.0000000E+00  0.2299015E+02
    951.00    0.2413953E+02  0.0000000E+00  0.0000000E+00  0.2413953E+02
    949.00    0.2490077E+02  0.0000000E+00  0.0000000E+00  0.2490077E+02
    947.00    0.2523155E+02  0.0000000E+00  0.0000000E+00  0.2523155E+02
    945.00    0.2512942E+02  0.0000000E+00  0.0000000E+00  0.2512942E+02
    943.00    0.2462964E+02  0.0000000E+00  0.0000000E+00  0.2462964E+02
    941.00    0.2379608E+02  0.0000000E+00  0.0000000E+00  0.2379608E+02
    939.00    0.2270801E+02  0.0000000E+00  0.0000000E+00  0.2270801E+02
    937.00    0.2144769E+02  0.0000000E+00  0.0000000E+00  0.2144769E+02
    935.00    0.2009060E+02  0.0000000E+00  0.0000000E+00  0.2009060E+02
    931.00    0.1732275E+02  0.0000000E+00  0.0000000E+00  0.1732275E+02
    927.00    0.1473663E+02  0.0000000E+00  0.0000000E+00  0.1473663E+02
    923.00    0.1247713E+02  0.0000000E+00  0.0000000E+00  0.1247713E+02
    919.00    0.1057364E+02  0.0000000E+00  0.0000000E+00  0.1057364E+02
    915.00    0.9000226E+01  0.0000000E+00  0.0000000E+00  0.9000226E+01
    911.00    0.7711498E+01  0.0000000E+00  0.0000000E+00  0.7711498E+01
    907.00    0.6659936E+01  0.0000000E+00  0.0000000E+00  0.6659936E+01
    903.00    0.5803898E+01  0.0000000E+00  0.0000000E+00  0.5803898E+01
    899.00    0.5109780E+01  0.0000000E+00  0.0000000E+00  0.5109780E+01
    895.00    0.4552830E+01  0.0000000E+00  0.0000000E+00  0.4552830E+01
    891.00    0.4118021E+01  0.0000000E+00  0.0000000E+00  0.4118021E+01
    887.00    0.3802341E+01  0.0000000E+00  0.0000000E+00  0.3802341E+01
    883.00    0.3621470E+01  0.0000000E+00  0.0000000E+00  0.3621470E+01
    881.00    0.3595520E+01  0.0000000E+00  0.0000000E+00  0.3595520E+01
    879.00    0.3627358E+01  0.0000000E+00  0.0000000E+00  0.3627358E+01
    877.00    0.3735675E+01  0.0000000E+00  0.0000000E+00  0.3735675E+01
    875.00    0.3946986E+01  0.0000000E+00  0.0000000E+00  0.3946986E+01
    873.00    0.4289376E+01  0.0000000E+00  0.0000000E+00  0.4289376E+01
    871.00    0.4729210E+01  0.0000000E+00  0.0000000E+00  0.4729210E+01
    869.00    0.3211050E+01  0.4695189E+00  0.5020380E+00  0.4182607E+01
    867.00    0.2825414E+01  0.6430493E+00  0.5807936E+00  0.4049257E+01
    865.00    0.2597645E+01  0.8039470E+00  0.6420330E+00  0.4043625E+01
    863.00    0.2430313E+01  0.9753710E+00  0.7102571E+00  0.4115941E+01
    861.00    0.2295550E+01  0.1163435E+01  0.7906329E+00  0.4249618E+01
    859.00    0.2181600E+01  0.1370772E+01  0.8849139E+00  0.4437287E+01
    857.00    0.2082398E+01  0.1598949E+01  0.9940180E+00  0.4675366E+01
    855.00    0.1994369E+01  0.1849053E+01  0.1118618E+01  0.4962040E+01
    851.00    0.1843308E+01  0.2418474E+01  0.1416784E+01  0.5678566E+01
    847.00    0.1716876E+01  0.3083555E+01  0.1783479E+01  0.6583910E+01
    843.00    0.1608503E+01  0.3844125E+01  0.2220335E+01  0.7672963E+01
    839.00    0.1513911E+01  0.4692192E+01  0.2724092E+01  0.8930195E+01
    835.00    0.1430052E+01  0.5607557E+01  0.3283522E+01  0.1032113E+02
    831.00    0.1354624E+01  0.6553576E+01  0.3876495E+01  0.1178469E+02
    827.00    0.1285807E+01  0.7474887E+01  0.4468250E+01  0.1322894E+02
    823.00    0.1222139E+01  0.8298904E+01  0.5012128E+01  0.1453317E+02
    819.00    0.1162445E+01  0.8946972E+01  0.5456471E+01  0.1556589E+02
    815.00    0.1105828E+01  0.9350362E+01  0.5754867E+01  0.1621106E+02
    811.00    0.1051642E+01  0.9469597E+01  0.5878723E+01  0.1639996E+02
    807.00    0.9994889E+00  0.9306197E+01  0.5825269E+01  0.1613096E+02
    803.00    0.9491873E+00  0.8900739E+01  0.5616907E+01  0.1546683E+02
    799.00    0.9007168E+00  0.8318912E+01  0.5292779E+01  0.1451241E+02
    795.00    0.8541556E+00  0.7633084E+01  0.4897219E+01  0.1338446E+02
    791.00    0.8096206E+00  0.6907540E+01  0.4470315E+01  0.1218748E+02
    787.00    0.7672231E+00  0.6190542E+01  0.4042663E+01  0.1100043E+02
    783.00    0.7270419E+00  0.5513393E+01  0.3634540E+01  0.9874974E+01
    779.00    0.6891083E+00  0.4893382E+01  0.3257562E+01  0.8840053E+01
    775.00    0.6534073E+00  0.4337442E+01  0.2916861E+01  0.7907710E+01
    771.00    0.6198876E+00  0.3845790E+01  0.2613298E+01  0.7078976E+01
    767.00    0.5884695E+00  0.3414659E+01  0.2345152E+01  0.6348280E+01
    763.00    0.5590541E+00  0.3038601E+01  0.2109552E+01  0.5707207E+01
    759.00    0.5315299E+00  0.2711490E+01  0.1903112E+01  0.5146131E+01
    755.00    0.5057809E+00  0.2427114E+01  0.1722301E+01  0.4655196E+01
    751.00    0.4816917E+00  0.2179721E+01  0.1563815E+01  0.4225227E+01
